Data from Arspp-i1_Reflection_16-54-15-257.txt Node
Date: Tue Aug 16 16:54:15 CEST 2022
User: IDIV
Spectrometer: FLMS14958
Trigger mode: 0
Integration Time (sec): 1.000000E-1
Scans to average: 10
Electric dark correction enabled: true
Nonlinearity correction enabled: true
Boxcar width: 2
XAxis mode: Wavelengths
Number of Pixels in Spectrum: 2048
>>>>>Begin Spectral Data<<<<<
179.491	131.81
179.869	111.08
180.247	198.4
180.625	154.58
181.003	-1343.66
181.381	60.51
181.759	88.18
182.136	-65.24
182.514	-529.2
182.892	428.33
183.27	185.28
183.647	69.73
184.025	86.39
184.403	152.27
184.78	197.41
185.158	67.92
185.536	105.1
185.913	158.95
186.291	154.33
186.668	132.72
187.046	90.89
187.423	48.05
187.801	3453.45
188.178	-134.63
188.556	-65.29
188.933	-68.1
189.31	-67.32
189.688	-59.13
190.065	-63.25
190.442	-53.96
190.82	-3.59
191.197	7.46
191.574	16.16
191.951	36.25
192.329	36.72
192.706	29.09
193.083	12.27
193.46	-0.1
193.837	-14.47
194.214	-3.51
194.591	6.8
194.968	12.69
195.345	26.18
195.722	32.9
196.099	27.79
196.476	27.02
196.853	34.64
197.23	17.66
197.607	16.66
197.984	28.38
198.36	25.72
198.737	21.55
199.114	26.94
199.491	21.95
199.867	0.02
200.244	-4.51
200.621	-4.04
200.997	9.59
201.374	10.16
201.75	15.47
202.127	10.63
202.504	6.83
202.88	13.5
203.257	14.41
203.633	4.55
204.01	12.87
204.386	23.97
204.762	1.91
205.139	-0.88
205.515	16.09
205.891	11.81
206.268	6.16
206.644	17.29
207.02	10.86
207.396	-1.74
207.773	6.35
208.149	3.08
208.525	-9.44
208.901	-8.1
209.277	8.18
209.653	-4.46
210.029	-9.49
210.405	-9.62
210.781	-7.77
211.157	-28.75
211.533	-11.17
211.909	2.56
212.285	17.67
212.661	17.21
213.037	18.96
213.413	16.13
213.789	4.55
214.164	-13.16
214.54	0.24
214.916	10.37
215.292	7.4
215.667	11.41
216.043	14.17
216.419	-3.29
216.794	-8.5
217.17	0.67
217.545	-1.26
217.921	2.12
218.296	18.65
218.672	6.42
219.047	-4.07
219.423	2.71
219.798	2.86
220.174	-14.34
220.549	-5.54
220.924	-3.79
221.3	-13.4
221.675	-10.52
222.05	3.74
222.425	11.74
222.801	11.37
223.176	11.57
223.551	7.39
223.926	5.06
224.301	2.18
224.676	2.82
225.051	14.45
225.426	15.48
225.801	14.24
226.176	13.13
226.551	15.85
226.926	6.22
227.301	3.86
227.676	0.53
228.051	-0.06
228.426	1.12
228.801	3.1
229.175	3.58
229.55	2.81
229.925	3.15
230.3	2.55
230.674	3.33
231.049	3.48
231.424	3.99
231.798	2.21
232.173	0.59
232.547	-1.92
232.922	-2.11
233.296	-2.19
233.671	-1.83
234.045	0
234.42	2.3
234.794	0.8
235.168	1.85
235.543	2.1
235.917	2.83
236.291	1.89
236.666	3.04
237.04	0.52
237.414	1.37
237.788	0.48
238.162	1.11
238.537	0.37
238.911	1.19
239.285	1.1
239.659	1.23
240.033	1.15
240.407	1.92
240.781	1.71
241.155	1.54
241.529	1.48
241.903	1.25
242.277	1.7
242.65	1.84
243.024	1.41
243.398	1.59
243.772	1.86
244.146	0.91
244.519	0.82
244.893	0.59
245.267	-0.29
245.64	-1.52
246.014	-0.89
246.387	-0.4
246.761	0.08
247.135	0.57
247.508	0.84
247.882	1.08
248.255	0.9
248.628	0.99
249.002	0.85
249.375	1.01
249.749	1.04
250.122	1.3
250.495	1.25
250.868	1.69
251.242	1.9
251.615	2.04
251.988	2.02
252.361	1.93
252.734	1.54
253.107	1.39
253.481	0.95
253.854	0.78
254.227	1.04
254.6	1.16
254.973	0.88
255.346	0.86
255.718	0.47
256.091	-0.32
256.464	-0.14
256.837	0.22
257.21	0.23
257.583	0.63
257.955	0.8
258.328	0.48
258.701	0.49
259.074	0.42
259.446	0.48
259.819	0.45
260.191	0.53
260.564	0.46
260.936	0.44
261.309	0.42
261.681	0.47
262.054	0.28
262.426	0.35
262.799	0.32
263.171	0.1
263.543	0.21
263.916	0.27
264.288	0.12
264.66	0.19
265.033	0.45
265.405	0.27
265.777	0.41
266.149	0.43
266.521	0.62
266.893	0.87
267.265	0.94
267.637	0.94
268.009	0.9
268.381	1.05
268.753	0.78
269.125	0.69
269.497	0.83
269.869	0.6
270.241	0.06
270.613	-0.03
270.985	0.19
271.356	0.16
271.728	0.37
272.1	0.71
272.471	0.84
272.843	0.77
273.215	0.75
273.586	0.74
273.958	0.49
274.329	0.4
274.701	0.52
275.072	0.23
275.444	0.28
275.815	0.47
276.187	0.13
276.558	-0.29
276.929	-0.25
277.301	-0.21
277.672	-0.39
278.043	0.06
278.415	0.48
278.786	0.47
279.157	0.41
279.528	0.73
279.899	0.79
280.27	0.61
280.641	0.64
281.012	0.57
281.383	0.33
281.754	0.29
282.125	0.41
282.496	0.43
282.867	0.46
283.238	0.43
283.609	0.33
283.98	0.33
284.35	0.42
284.721	0.28
285.092	0.53
285.462	0.42
285.833	0.48
286.204	0.53
286.574	0.5
286.945	0.46
287.315	0.74
287.686	0.53
288.056	0.42
288.427	0.62
288.797	0.36
289.168	0.21
289.538	0.56
289.908	0.59
290.279	0.65
290.649	1
291.019	0.99
291.39	0.92
291.76	1.08
292.13	1.06
292.5	0.77
292.87	0.57
293.24	0.5
293.61	0.17
293.98	-0.06
294.35	0.03
294.72	0.13
295.09	0.11
295.46	0.34
295.83	0.88
296.2	1.04
296.57	0.75
296.939	0.37
297.309	0.43
297.679	-0.07
298.049	-0.31
298.418	-0.06
298.788	0.3
299.158	0.39
299.527	0.7
299.897	0.95
300.266	1.04
300.636	0.6
301.005	0.65
301.375	0.5
301.744	0.55
302.113	0.41
302.483	0.78
302.852	0.37
303.221	0.48
303.591	0.2
303.96	0.04
304.329	0.08
304.698	0.15
305.067	0.35
305.436	0.62
305.806	0.76
306.175	0.56
306.544	0.94
306.913	0.7
307.282	0.84
307.65	1.02
308.019	0.92
308.388	0.98
308.757	1.07
309.126	0.86
309.495	0.68
309.863	0.59
310.232	0.31
310.601	0.2
310.969	0.23
311.338	0.32
311.707	0.33
312.075	0.48
312.444	0.53
312.812	0.54
313.181	0.75
313.549	1.31
313.918	1.3
314.286	1.41
314.654	1.5
315.023	1.05
315.391	1.05
315.759	0.69
316.127	0.39
316.496	0.37
316.864	0.71
317.232	0.34
317.6	0.4
317.968	0.66
318.336	0.49
318.704	0.52
319.072	0.5
319.44	0.97
319.808	0.86
320.176	1.06
320.544	0.58
320.912	0.26
321.28	0.16
321.647	0.26
322.015	0.4
322.383	0.67
322.75	0.99
323.118	0.81
323.486	0.89
323.853	0.53
324.221	0.56
324.588	0.71
324.956	0.74
325.323	0.56
325.691	0.88
326.058	0.81
326.426	0.77
326.793	0.48
327.16	0.7
327.528	0.48
327.895	0.52
328.262	0.23
328.629	0.44
328.996	0.16
329.363	-0.15
329.731	-0.13
330.098	0.12
330.465	0.11
330.832	-0.17
331.199	0.01
331.566	0.09
331.932	0.36
332.299	0.64
332.666	0.54
333.033	0.43
333.4	0.46
333.766	0.31
334.133	0.13
334.5	0.38
334.867	0.38
335.233	0.21
335.6	0.07
335.966	0.12
336.333	0.29
336.699	0.42
337.066	0.46
337.432	0.37
337.799	0.08
338.165	0.2
338.531	0.39
338.898	0.27
339.264	0.65
339.63	0.94
339.996	0.83
340.363	0.6
340.729	0.81
341.095	0.67
341.461	0.7
341.827	0.74
342.193	0.93
342.559	0.85
342.925	0.74
343.291	0.75
343.657	0.91
344.023	0.91
344.388	0.55
344.754	0.29
345.12	0.38
345.486	0.24
345.851	0.2
346.217	0.59
346.583	0.9
346.948	0.58
347.314	0.42
347.679	0.36
348.045	0.33
348.41	0.37
348.776	0.59
349.141	0.64
349.507	0.81
349.872	0.82
350.237	0.72
350.603	0.46
350.968	0.68
351.333	0.5
351.698	0.31
352.063	0.18
352.428	0.08
352.794	-0.15
353.159	0.14
353.524	0.3
353.889	0.46
354.254	0.67
354.618	0.88
354.983	0.59
355.348	0.61
355.713	0.72
356.078	0.68
356.443	0.64
356.807	0.71
357.172	0.48
357.537	0.45
357.901	0.66
358.266	0.37
358.63	0.41
358.995	0.64
359.359	0.61
359.724	0.4
360.088	0.66
360.453	0.53
360.817	0.45
361.181	0.5
361.546	0.58
361.91	0.64
362.274	0.74
362.638	0.85
363.003	0.89
363.367	0.96
363.731	0.87
364.095	0.78
364.459	0.69
364.823	0.61
365.187	0.39
365.551	0.37
365.915	0.42
366.279	0.48
366.642	0.58
367.006	0.84
367.37	0.84
367.734	0.9
368.097	0.95
368.461	1.03
368.825	0.93
369.188	1.21
369.552	1.31
369.915	1.33
370.279	1.41
370.642	1.21
371.006	1.16
371.369	1.22
371.732	1.2
372.096	1.11
372.459	1.55
372.822	1.53
373.186	1.46
373.549	1.76
373.912	1.79
374.275	1.62
374.638	1.65
375.001	1.84
375.364	1.46
375.727	1.26
376.09	1.34
376.453	1.29
376.816	1.17
377.179	1.21
377.542	1.26
377.904	1.29
378.267	1.39
378.63	1.36
378.993	1.41
379.355	1.52
379.718	1.22
380.08	1.28
380.443	1.43
380.806	1.58
381.168	1.56
381.53	1.77
381.893	1.8
382.255	1.62
382.618	1.64
382.98	1.62
383.342	1.78
383.704	1.67
384.067	1.87
384.429	2.05
384.791	2.11
385.153	2.06
385.515	2.14
385.877	2.15
386.239	2
386.601	2.1
386.963	2.06
387.325	2.21
387.687	2.17
388.049	2.14
388.41	2.16
388.772	2.2
389.134	1.91
389.496	1.96
389.857	1.91
390.219	1.83
390.58	1.77
390.942	1.91
391.303	1.88
391.665	2.03
392.026	2.06
392.388	2.16
392.749	2.11
393.111	2.09
393.472	2.16
393.833	2.07
394.194	1.89
394.556	1.94
394.917	1.93
395.278	1.9
395.639	1.95
396	2.24
396.361	2.13
396.722	2.15
397.083	2.04
397.444	1.97
397.805	1.84
398.166	2
398.526	1.93
398.887	1.99
399.248	2.14
399.609	2.24
399.969	2.28
400.33	2.39
400.691	2.51
401.051	2.36
401.412	2.3
401.772	2.16
402.133	2.14
402.493	1.99
402.853	2.15
403.214	2.09
403.574	2.28
403.934	2.25
404.295	2.21
404.655	2.2
405.015	2.27
405.375	2.14
405.735	2.17
406.095	2.25
406.455	2.26
406.815	2.26
407.175	2.33
407.535	2.31
407.895	2.38
408.255	2.39
408.615	2.44
408.975	2.29
409.334	2.24
409.694	2.04
410.054	2.01
410.413	1.91
410.773	2.05
411.133	2.06
411.492	2.13
411.852	2.12
412.211	2.14
412.571	1.95
412.93	2.07
413.289	2.09
413.649	2.11
414.008	2.17
414.367	2.34
414.726	2.26
415.086	2.17
415.445	2.24
415.804	2.25
416.163	2.23
416.522	2.33
416.881	2.45
417.24	2.39
417.599	2.37
417.958	2.3
418.316	2.23
418.675	2.24
419.034	2.24
419.393	2.21
419.751	2.23
420.11	2.23
420.469	2.13
420.827	2.11
421.186	2.1
421.544	2.16
421.903	2.21
422.261	2.31
422.62	2.33
422.978	2.38
423.336	2.42
423.695	2.34
424.053	2.27
424.411	2.29
424.769	2.24
425.128	2.15
425.486	2.22
425.844	2.25
426.202	2.24
426.56	2.27
426.918	2.35
427.276	2.3
427.634	2.28
427.991	2.32
428.349	2.36
428.707	2.34
429.065	2.41
429.423	2.49
429.78	2.36
430.138	2.31
430.495	2.21
430.853	2.2
431.211	2.16
431.568	2.24
431.925	2.36
432.283	2.45
432.64	2.39
432.998	2.36
433.355	2.27
433.712	2.1
434.069	2.07
434.427	2.1
434.784	2.03
435.141	2.02
435.498	2.12
435.855	2.11
436.212	2.1
436.569	2.18
436.926	2.31
437.283	2.39
437.64	2.47
437.996	2.51
438.353	2.51
438.71	2.5
439.067	2.38
439.423	2.35
439.78	2.27
440.137	2.32
440.493	2.3
440.85	2.31
441.206	2.29
441.563	2.33
441.919	2.37
442.275	2.4
442.632	2.49
442.988	2.58
443.344	2.66
443.7	2.58
444.057	2.61
444.413	2.59
444.769	2.61
445.125	2.6
445.481	2.62
445.837	2.56
446.193	2.55
446.549	2.55
446.905	2.54
447.26	2.57
447.616	2.58
447.972	2.66
448.328	2.71
448.683	2.72
449.039	2.64
449.395	2.73
449.75	2.7
450.106	2.58
450.461	2.66
450.817	2.84
451.172	2.8
451.527	2.73
451.883	2.77
452.238	2.75
452.593	2.7
452.949	2.77
453.304	2.79
453.659	2.81
454.014	2.81
454.369	2.72
454.724	2.69
455.079	2.78
455.434	2.77
455.789	2.83
456.144	2.95
456.499	3.03
456.853	3.01
457.208	3.06
457.563	3.11
457.918	3.08
458.272	3
458.627	2.95
458.981	2.96
459.336	2.9
459.69	2.87
460.045	2.92
460.399	2.97
460.754	2.98
461.108	3.02
461.462	3.08
461.817	3.15
462.171	3.12
462.525	3.08
462.879	3.06
463.233	3.06
463.587	2.98
463.941	2.94
464.295	2.94
464.649	3
465.003	3.05
465.357	3.04
465.711	3.11
466.065	3.11
466.418	3.04
466.772	2.98
467.126	3.01
467.479	3.01
467.833	3.02
468.186	3.03
468.54	3.04
468.893	2.94
469.247	2.98
469.6	2.99
469.954	2.97
470.307	2.99
470.66	3.11
471.013	3.04
471.367	3.14
471.72	3.24
472.073	3.23
472.426	3.13
472.779	3.16
473.132	3.07
473.485	2.98
473.838	3
474.191	3.03
474.544	2.99
474.896	3.06
475.249	3.15
475.602	3.1
475.955	3.14
476.307	3.15
476.66	3.15
477.012	3.1
477.365	3.17
477.717	3.17
478.07	3.19
478.422	3.09
478.775	3.07
479.127	3
479.479	2.96
479.831	2.88
480.184	2.91
480.536	2.97
480.888	3.01
481.24	3.1
481.592	3.15
481.944	3.15
482.296	3.13
482.648	3.13
483	3.05
483.352	3.06
483.703	3.06
484.055	3.08
484.407	3.1
484.759	3.17
485.11	3.22
485.462	3.27
485.813	3.3
486.165	3.32
486.516	3.28
486.868	3.22
487.219	3.22
487.571	3.2
487.922	3.19
488.273	3.22
488.624	3.29
488.976	3.33
489.327	3.41
489.678	3.48
490.029	3.54
490.38	3.48
490.731	3.46
491.082	3.45
491.433	3.43
491.784	3.47
492.135	3.52
492.485	3.58
492.836	3.65
493.187	3.74
493.537	3.8
493.888	3.85
494.239	3.85
494.589	3.87
494.94	3.83
495.29	3.77
495.641	3.85
495.991	3.85
496.341	3.78
496.692	3.85
497.042	3.93
497.392	3.98
497.742	4.05
498.092	4.15
498.442	4.22
498.793	4.31
499.143	4.35
499.493	4.43
499.842	4.55
500.192	4.61
500.542	4.62
500.892	4.73
501.242	4.79
501.591	4.77
501.941	4.86
502.291	4.95
502.64	4.99
502.99	5.07
503.339	5.26
503.689	5.32
504.038	5.37
504.388	5.39
504.737	5.44
505.086	5.47
505.436	5.55
505.785	5.63
506.134	5.75
506.483	5.81
506.832	5.89
507.181	5.93
507.53	6.12
507.879	6.15
508.228	6.18
508.577	6.24
508.926	6.37
509.275	6.3
509.624	6.46
509.972	6.64
510.321	6.73
510.67	6.77
511.018	7
511.367	7.02
511.715	7.05
512.064	7.12
512.412	7.22
512.761	7.25
513.109	7.34
513.457	7.49
513.806	7.54
514.154	7.66
514.502	7.74
514.85	7.84
515.198	7.85
515.546	7.99
515.894	8.05
516.242	8.1
516.59	8.18
516.938	8.29
517.286	8.35
517.634	8.44
517.981	8.58
518.329	8.65
518.677	8.74
519.024	8.84
519.372	8.94
519.72	8.96
520.067	9.11
520.415	9.18
520.762	9.21
521.109	9.25
521.457	9.33
521.804	9.29
522.151	9.31
522.498	9.44
522.846	9.53
523.193	9.61
523.54	9.66
523.887	9.72
524.234	9.75
524.581	9.76
524.928	9.82
525.275	9.85
525.621	9.91
525.968	9.9
526.315	9.92
526.662	9.97
527.008	10.08
527.355	10.13
527.701	10.27
528.048	10.34
528.394	10.4
528.741	10.45
529.087	10.5
529.434	10.56
529.78	10.63
530.126	10.68
530.472	10.76
530.819	10.83
531.165	10.81
531.511	10.82
531.857	10.88
532.203	10.86
532.549	10.83
532.895	10.9
533.241	10.97
533.586	10.96
533.932	11.03
534.278	11.1
534.624	11.17
534.969	11.15
535.315	11.16
535.661	11.14
536.006	11.13
536.352	11.07
536.697	11.12
537.042	11.14
537.388	11.18
537.733	11.25
538.078	11.36
538.424	11.38
538.769	11.43
539.114	11.45
539.459	11.45
539.804	11.33
540.149	11.37
540.494	11.35
540.839	11.35
541.184	11.36
541.529	11.39
541.873	11.42
542.218	11.43
542.563	11.47
542.908	11.49
543.252	11.55
543.597	11.58
543.941	11.6
544.286	11.64
544.63	11.66
544.975	11.66
545.319	11.7
545.663	11.82
546.007	11.81
546.352	11.79
546.696	11.8
547.04	11.77
547.384	11.71
547.728	11.73
548.072	11.77
548.416	11.74
548.76	11.71
549.104	11.66
549.448	11.58
549.791	11.61
550.135	11.66
550.479	11.7
550.823	11.77
551.166	11.85
551.51	11.8
551.853	11.82
552.197	11.73
552.54	11.78
552.883	11.77
553.227	11.76
553.57	11.73
553.913	11.77
554.257	11.71
554.6	11.75
554.943	11.78
555.286	11.81
555.629	11.81
555.972	11.85
556.315	11.82
556.658	11.83
557.001	11.75
557.343	11.79
557.686	11.74
558.029	11.66
558.371	11.61
558.714	11.59
559.057	11.6
559.399	11.64
559.742	11.68
560.084	11.64
560.427	11.56
560.769	11.52
561.111	11.35
561.453	11.35
561.796	11.3
562.138	11.4
562.48	11.41
562.822	11.49
563.164	11.48
563.506	11.6
563.848	11.67
564.19	11.67
564.532	11.75
564.874	11.73
565.215	11.68
565.557	11.61
565.899	11.56
566.24	11.46
566.582	11.45
566.924	11.39
567.265	11.38
567.606	11.37
567.948	11.35
568.289	11.36
568.631	11.35
568.972	11.4
569.313	11.35
569.654	11.39
569.995	11.42
570.336	11.36
570.677	11.23
571.018	11.23
571.359	11.19
571.7	11.14
572.041	11.22
572.382	11.28
572.723	11.28
573.064	11.28
573.404	11.25
573.745	11.23
574.085	11.14
574.426	11.11
574.766	11.04
575.107	11.03
575.447	10.94
575.788	10.99
576.128	10.98
576.468	11
576.808	10.94
577.149	10.91
577.489	10.83
577.829	10.86
578.169	10.86
578.509	10.87
578.849	10.93
579.189	10.94
579.529	10.87
579.868	10.85
580.208	10.76
580.548	10.73
580.887	10.67
581.227	10.62
581.567	10.56
581.906	10.59
582.246	10.6
582.585	10.61
582.925	10.61
583.264	10.62
583.603	10.61
583.942	10.58
584.282	10.54
584.621	10.62
584.96	10.56
585.299	10.54
585.638	10.49
585.977	10.43
586.316	10.27
586.655	10.21
586.994	10.2
587.332	10.26
587.671	10.27
588.01	10.31
588.348	10.4
588.687	10.39
589.026	10.43
589.364	10.44
589.703	10.48
590.041	10.47
590.379	10.5
590.718	10.48
591.056	10.55
591.394	10.48
591.732	10.48
592.07	10.42
592.409	10.3
592.747	10.17
593.085	10.13
593.423	10.18
593.76	10.26
594.098	10.3
594.436	10.38
594.774	10.36
595.112	10.34
595.449	10.29
595.787	10.26
596.124	10.24
596.462	10.25
596.799	10.16
597.137	10.13
597.474	10.1
597.812	10.1
598.149	10.1
598.486	10.16
598.823	10.25
599.16	10.29
599.498	10.31
599.835	10.35
600.172	10.41
600.509	10.27
600.845	10.33
601.182	10.36
601.519	10.44
601.856	10.38
602.193	10.32
602.529	10.28
602.866	10.13
603.202	10.06
603.539	9.99
603.875	9.94
604.212	9.93
604.548	9.98
604.885	10.01
605.221	10.07
605.557	10.12
605.893	10.08
606.23	10.04
606.566	10.05
606.902	9.95
607.238	10.07
607.574	10.05
607.91	10.1
608.245	9.96
608.581	10.08
608.917	10.15
609.253	10.23
609.588	10.11
609.924	10.24
610.26	10.16
610.595	10.1
610.931	10.04
611.266	10.13
611.601	10
611.937	9.97
612.272	9.42
612.607	9.29
612.942	9.23
613.278	9.15
613.613	9.05
613.948	9.58
614.283	9.65
614.618	9.63
614.953	9.58
615.287	9.76
615.622	9.67
615.957	9.7
616.292	9.75
616.626	9.74
616.961	9.57
617.295	9.49
617.63	9.36
617.964	9.23
618.299	9.23
618.633	9.14
618.968	9.33
619.302	9.29
619.636	9.16
619.97	9.27
620.304	9.32
620.638	9.15
620.972	9.17
621.306	9.27
621.64	9.24
621.974	9.29
622.308	9.26
622.642	9.26
622.976	9.37
623.309	9.3
623.643	9.31
623.977	9.22
624.31	9.22
624.644	9.21
624.977	9.18
625.31	9.18
625.644	9.39
625.977	9.53
626.31	9.45
626.643	9.36
626.977	9.43
627.31	9.41
627.643	9.19
627.976	9.24
628.309	9.32
628.642	9.15
628.974	9.16
629.307	9.34
629.64	9.24
629.973	9.25
630.305	9.28
630.638	9.22
630.971	9.15
631.303	9.17
631.636	9.02
631.968	8.89
632.3	8.72
632.633	8.77
632.965	8.81
633.297	8.97
633.629	9.13
633.961	9.14
634.293	9.03
634.625	8.95
634.957	8.97
635.289	8.93
635.621	9.02
635.953	9.03
636.285	8.94
636.617	8.9
636.948	8.92
637.28	8.98
637.611	8.96
637.943	8.98
638.274	8.82
638.606	8.72
638.937	8.61
639.269	8.56
639.6	8.59
639.931	8.65
640.262	8.48
640.593	8.39
640.924	8.33
641.255	8.16
641.586	7.88
641.917	8.12
642.248	7.99
642.579	7.82
642.91	7.87
643.24	8.06
643.571	7.77
643.902	7.77
644.232	7.89
644.563	7.92
644.893	7.68
645.224	7.86
645.554	7.9
645.884	7.72
646.215	7.52
646.545	7.56
646.875	7.46
647.205	7.19
647.535	7.2
647.865	7.13
648.195	7.13
648.525	6.9
648.855	7.02
649.185	6.91
649.515	6.81
649.844	6.78
650.174	6.79
650.504	6.88
650.833	6.89
651.163	6.96
651.492	6.88
651.822	7.01
652.151	7.05
652.48	6.95
652.81	6.93
653.139	6.86
653.468	6.73
653.797	6.68
654.126	6.85
654.455	7.01
654.784	7.12
655.113	7.2
655.442	7.2
655.771	7.13
656.099	7.06
656.428	6.91
656.757	6.81
657.085	6.7
657.414	6.67
657.742	6.57
658.071	6.45
658.399	6.4
658.728	6.19
659.056	6.14
659.384	6.12
659.712	6.21
660.04	6.21
660.369	6.28
660.697	6.29
661.025	6.12
661.353	6.1
661.68	5.88
662.008	5.8
662.336	5.96
662.664	6.1
662.991	5.94
663.319	6.1
663.647	6.09
663.974	5.91
664.302	5.78
664.629	5.98
664.956	5.94
665.284	5.85
665.611	5.79
665.938	5.74
666.265	5.47
666.593	5.38
666.92	5.42
667.247	5.37
667.574	5.54
667.9	5.49
668.227	5.5
668.554	5.59
668.881	5.41
669.208	5.16
669.534	5.22
669.861	5.19
670.187	4.98
670.514	5.07
670.84	5.3
671.167	5.52
671.493	5.34
671.819	5.6
672.146	5.52
672.472	5.37
672.798	5.13
673.124	5.21
673.45	5.02
673.776	4.94
674.102	5.1
674.428	5.15
674.754	5.16
675.079	4.88
