Data from Av-i2_Reflection_14-43-43-523.txt Node
Date: Tue Aug 16 14:43:43 CEST 2022
User: IDIV
Spectrometer: FLMS14958
Trigger mode: 0
Integration Time (sec): 1.000000E-1
Scans to average: 10
Electric dark correction enabled: true
Nonlinearity correction enabled: true
Boxcar width: 2
XAxis mode: Wavelengths
Number of Pixels in Spectrum: 2048
>>>>>Begin Spectral Data<<<<<
179.491	-505.71
179.869	-1269.4
180.247	210.8
180.625	18.63
181.003	50.92
181.381	34.29
181.759	-24.33
182.136	-1656.64
182.514	19.7
182.892	199.03
183.27	178.89
183.647	330.18
184.025	364.15
184.403	-639.13
184.78	145.72
185.158	16.24
185.536	-120.34
185.913	593.59
186.291	-730.22
186.668	-209.63
187.046	-40.22
187.423	-5.42
187.801	16.6
188.178	30.33
188.556	24.12
188.933	11.1
189.31	3.95
189.688	0.82
190.065	-2.75
190.442	2.6
190.82	16.38
191.197	24
191.574	21.1
191.951	22.86
192.329	14.19
192.706	3.96
193.083	1.22
193.46	16.09
193.837	21.24
194.214	14.36
194.591	12.57
194.968	1.94
195.345	-7.54
195.722	2.3
196.099	5.29
196.476	8.1
196.853	18.47
197.23	17.32
197.607	5.21
197.984	8
198.36	8.96
198.737	13.75
199.114	19.64
199.491	20.88
199.867	22.38
200.244	18.5
200.621	14.12
200.997	2.27
201.374	-4.56
201.75	-12
202.127	-3.14
202.504	-4.56
202.88	-4.21
203.257	-0.83
203.633	9.06
204.01	9.14
204.386	6.44
204.762	15.33
205.139	23.7
205.515	23.37
205.891	19.92
206.268	17.88
206.644	17.56
207.02	14.99
207.396	9.09
207.773	12.27
208.149	17.92
208.525	14.21
208.901	12.66
209.277	18.15
209.653	15.45
210.029	4.78
210.405	-3.13
210.781	-0.64
211.157	-8.26
211.533	-8.23
211.909	6.7
212.285	17.13
212.661	21.44
213.037	14.88
213.413	3.4
213.789	-12.53
214.164	-17.28
214.54	-34.91
214.916	-17.16
215.292	-7.4
215.667	-2.11
216.043	6.09
216.419	2.35
216.794	-0.13
217.17	3.76
217.545	10.26
217.921	5.8
218.296	9.06
218.672	17.31
219.047	8.39
219.423	8.04
219.798	6.08
220.174	10.71
220.549	3.98
220.924	7.49
221.3	4.81
221.675	6.64
222.05	6.53
222.425	10.25
222.801	14.9
223.176	11.59
223.551	7.42
223.926	1.01
224.301	-7.98
224.676	-11.53
225.051	-8.82
225.426	-5.61
225.801	-6.21
226.176	-3.06
226.551	-4.16
226.926	-4.23
227.301	-5.93
227.676	-1.29
228.051	-3.32
228.426	-0.31
228.801	0.57
229.175	1.36
229.55	1.55
229.925	1.98
230.3	0.54
230.674	-0.6
231.049	-0.13
231.424	-1.6
231.798	-1.76
232.173	-1.26
232.547	-1
232.922	-2.63
233.296	-2.43
233.671	-2.31
234.045	-2.03
234.42	-1.51
234.794	0.37
235.168	1.24
235.543	2.18
235.917	2.4
236.291	3.07
236.666	2.02
237.04	1.75
237.414	1.92
237.788	1.75
238.162	0.56
238.537	-1.05
238.911	-1.42
239.285	-2.54
239.659	-2.09
240.033	-1.63
240.407	0.24
240.781	0.15
241.155	-0.26
241.529	-0.02
241.903	-0.06
242.277	-0.26
242.65	-0.48
243.024	0.29
243.398	0.23
243.772	0.5
244.146	0.57
244.519	0.91
244.893	0.37
245.267	0.61
245.64	0.22
246.014	0.57
246.387	0.34
246.761	0.38
247.135	0.29
247.508	0.21
247.882	0.01
248.255	0
248.628	-0.05
249.002	-0.11
249.375	0.08
249.749	-0.01
250.122	0.17
250.495	0.04
250.868	-0.07
251.242	-0.15
251.615	0.37
251.988	0.36
252.361	0.65
252.734	0.45
253.107	0.32
253.481	0.28
253.854	0.51
254.227	0.25
254.6	0.49
254.973	0.12
255.346	-0.51
255.718	-0.9
256.091	-0.67
256.464	-0.39
256.837	0.09
257.21	0.47
257.583	0.41
257.955	0.43
258.328	0.26
258.701	0.38
259.074	0.48
259.446	0.38
259.819	0.32
260.191	0.27
260.564	0.12
260.936	0.01
261.309	0.01
261.681	-0.07
262.054	-0.08
262.426	0.1
262.799	0.23
263.171	-0
263.543	0.24
263.916	0.21
264.288	-0.09
264.66	-0.07
265.033	0.5
265.405	0.26
265.777	0.35
266.149	0.72
266.521	0.39
266.893	0.32
267.265	0.43
267.637	0.34
268.009	0.41
268.381	0.36
268.753	0.11
269.125	0.07
269.497	0.27
269.869	0.13
270.241	0.29
270.613	0.33
270.985	0.43
271.356	0.26
271.728	0.21
272.1	0.45
272.471	0.65
272.843	0.55
273.215	0.73
273.586	0.77
273.958	0.54
274.329	0.38
274.701	0.33
275.072	0.06
275.444	0.12
275.815	0.27
276.187	0.41
276.558	0.45
276.929	0.52
277.301	0.64
277.672	0.72
278.043	0.72
278.415	0.69
278.786	0.87
279.157	0.54
279.528	0.41
279.899	0.11
280.27	0.3
280.641	0.26
281.012	0.41
281.383	0.49
281.754	0.51
282.125	0.52
282.496	0.35
282.867	0.2
283.238	0.19
283.609	0.41
283.98	0.41
284.35	0.42
284.721	0.51
285.092	0.44
285.462	0.49
285.833	0.55
286.204	0.6
286.574	0.54
286.945	0.68
287.315	0.59
287.686	0.51
288.056	0.6
288.427	0.83
288.797	0.67
289.168	0.71
289.538	0.77
289.908	0.55
290.279	0.47
290.649	0.49
291.019	0.39
291.39	0.19
291.76	0.37
292.13	0.36
292.5	0.41
292.87	0.36
293.24	0.72
293.61	0.77
293.98	0.73
294.35	0.55
294.72	0.79
295.09	0.46
295.46	0.06
295.83	0.03
296.2	0.28
296.57	0.16
296.939	0.31
297.309	0.6
297.679	0.66
298.049	0.63
298.418	0.62
298.788	0.58
299.158	0.4
299.527	0.28
299.897	0.09
300.266	0.13
300.636	0.04
301.005	0.11
301.375	0.16
301.744	0.15
302.113	0.32
302.483	0.34
302.852	0.48
303.221	0.52
303.591	0.61
303.96	0.53
304.329	0.8
304.698	0.44
305.067	0.37
305.436	0.22
305.806	0.12
306.175	-0.32
306.544	-0.15
306.913	-0.14
307.282	-0.03
307.65	0.04
308.019	0.39
308.388	0.41
308.757	0.13
309.126	0.21
309.495	0.38
309.863	0.45
310.232	0.51
310.601	0.92
310.969	0.82
311.338	0.67
311.707	0.45
312.075	0.32
312.444	-0.06
312.812	-0.2
313.181	-0.29
313.549	-0.27
313.918	-0.26
314.286	0.04
314.654	0.18
315.023	0.22
315.391	0.21
315.759	0.36
316.127	0.37
316.496	0.58
316.864	0.63
317.232	0.57
317.6	0.62
317.968	0.69
318.336	0.5
318.704	0.59
319.072	0.84
319.44	0.92
319.808	0.64
320.176	0.49
320.544	0.3
320.912	0.23
321.28	0
321.647	0.28
322.015	0.56
322.383	0.71
322.75	0.44
323.118	0.48
323.486	0.42
323.853	0.04
324.221	-0.12
324.588	-0.05
324.956	-0.15
325.323	-0.22
325.691	0.11
326.058	0.27
326.426	0.11
326.793	0.08
327.16	0.26
327.528	0.31
327.895	0.26
328.262	0.35
328.629	0.36
328.996	0.18
329.363	0.16
329.731	0.16
330.098	0.4
330.465	0.66
330.832	0.65
331.199	0.64
331.566	0.6
331.932	0.58
332.299	0.53
332.666	0.62
333.033	0.78
333.4	0.59
333.766	0.41
334.133	0.23
334.5	0.2
334.867	0.15
335.233	0.26
335.6	0.51
335.966	0.51
336.333	0.45
336.699	0.31
337.066	0.32
337.432	0.28
337.799	0.35
338.165	0.47
338.531	0.55
338.898	0.61
339.264	0.42
339.63	0.47
339.996	0.49
340.363	0.8
340.729	0.68
341.095	0.75
341.461	0.55
341.827	0.52
342.193	0.21
342.559	0.12
342.925	0.07
343.291	0.17
343.657	0.15
344.023	0.04
344.388	0.38
344.754	0.48
345.12	0.68
345.486	0.73
345.851	0.91
346.217	0.67
346.583	0.56
346.948	0.34
347.314	0.18
347.679	0.09
348.045	0.34
348.41	0.5
348.776	0.54
349.141	0.8
349.507	0.78
349.872	0.59
350.237	0.45
350.603	0.64
350.968	0.52
351.333	0.41
351.698	0.27
352.063	0.49
352.428	0.27
352.794	0.26
353.159	0.09
353.524	0.23
353.889	-0.11
354.254	-0.14
354.618	-0.06
354.983	0.3
355.348	0.54
355.713	0.77
356.078	0.78
356.443	0.66
356.807	0.51
357.172	0.2
357.537	0.06
357.901	0.27
358.266	0.19
358.63	0.27
358.995	0.33
359.359	0.39
359.724	0.22
360.088	0.29
360.453	0.19
360.817	0.26
361.181	0.26
361.546	0.25
361.91	0.24
362.274	0.26
362.638	0.23
363.003	0.2
363.367	0.18
363.731	0.23
364.095	0.29
364.459	0.43
364.823	0.47
365.187	0.65
365.551	0.68
365.915	0.58
366.279	0.45
366.642	0.35
367.006	0.21
367.37	0.09
367.734	0.09
368.097	0.06
368.461	0.32
368.825	0.26
369.188	0.37
369.552	0.38
369.915	0.39
370.279	0.24
370.642	0.33
371.006	0.27
371.369	0.2
371.732	0.17
372.096	0.08
372.459	0.03
372.822	-0.04
373.186	0.16
373.549	0.5
373.912	0.47
374.275	0.5
374.638	0.49
375.001	0.5
375.364	0.22
375.727	0.32
376.09	0.36
376.453	0.44
376.816	0.23
377.179	0.1
377.542	0.22
377.904	0.22
378.267	0.25
378.63	0.44
378.993	0.54
379.355	0.32
379.718	0.31
380.08	0.27
380.443	0.2
380.806	0.25
381.168	0.3
381.53	0.41
381.893	0.43
382.255	0.33
382.618	0.35
382.98	0.37
383.342	0.24
383.704	0.3
384.067	0.3
384.429	0.26
384.791	0.3
385.153	0.4
385.515	0.33
385.877	0.49
386.239	0.55
386.601	0.54
386.963	0.53
387.325	0.53
387.687	0.43
388.049	0.42
388.41	0.35
388.772	0.35
389.134	0.19
389.496	0.24
389.857	0.23
390.219	0.4
390.58	0.33
390.942	0.61
391.303	0.54
391.665	0.5
392.026	0.5
392.388	0.58
392.749	0.48
393.111	0.47
393.472	0.41
393.833	0.26
394.194	0.16
394.556	0.18
394.917	0.23
395.278	0.31
395.639	0.38
396	0.35
396.361	0.32
396.722	0.4
397.083	0.34
397.444	0.36
397.805	0.38
398.166	0.35
398.526	0.23
398.887	0.16
399.248	0.14
399.609	0.23
399.969	0.32
400.33	0.29
400.691	0.4
401.051	0.36
401.412	0.21
401.772	0.12
402.133	0.13
402.493	0.13
402.853	0.14
403.214	0.22
403.574	0.25
403.934	0.3
404.295	0.36
404.655	0.34
405.015	0.46
405.375	0.52
405.735	0.44
406.095	0.41
406.455	0.4
406.815	0.31
407.175	0.23
407.535	0.32
407.895	0.27
408.255	0.33
408.615	0.41
408.975	0.45
409.334	0.49
409.694	0.5
410.054	0.51
410.413	0.46
410.773	0.46
411.133	0.46
411.492	0.53
411.852	0.65
412.211	0.72
412.571	0.8
412.93	0.67
413.289	0.64
413.649	0.58
414.008	0.46
414.367	0.34
414.726	0.48
415.086	0.37
415.445	0.34
415.804	0.42
416.163	0.44
416.522	0.31
416.881	0.38
417.24	0.39
417.599	0.28
417.958	0.25
418.316	0.31
418.675	0.35
419.034	0.34
419.393	0.45
419.751	0.47
420.11	0.49
420.469	0.5
420.827	0.48
421.186	0.43
421.544	0.42
421.903	0.42
422.261	0.38
422.62	0.34
422.978	0.35
423.336	0.31
423.695	0.29
424.053	0.32
424.411	0.35
424.769	0.32
425.128	0.38
425.486	0.41
425.844	0.4
426.202	0.39
426.56	0.47
426.918	0.43
427.276	0.42
427.634	0.4
427.991	0.36
428.349	0.32
428.707	0.41
429.065	0.41
429.423	0.45
429.78	0.53
430.138	0.54
430.495	0.46
430.853	0.48
431.211	0.48
431.568	0.47
431.925	0.44
432.283	0.48
432.64	0.43
432.998	0.43
433.355	0.47
433.712	0.42
434.069	0.4
434.427	0.41
434.784	0.41
435.141	0.35
435.498	0.38
435.855	0.43
436.212	0.42
436.569	0.43
436.926	0.48
437.283	0.48
437.64	0.38
437.996	0.33
438.353	0.37
438.71	0.32
439.067	0.3
439.423	0.3
439.78	0.39
440.137	0.37
440.493	0.37
440.85	0.41
441.206	0.42
441.563	0.33
441.919	0.34
442.275	0.32
442.632	0.26
442.988	0.34
443.344	0.39
443.7	0.29
444.057	0.28
444.413	0.32
444.769	0.26
445.125	0.28
445.481	0.36
445.837	0.38
446.193	0.33
446.549	0.35
446.905	0.31
447.26	0.29
447.616	0.29
447.972	0.35
448.328	0.37
448.683	0.41
449.039	0.42
449.395	0.39
449.75	0.4
450.106	0.36
450.461	0.33
450.817	0.26
451.172	0.36
451.527	0.33
451.883	0.32
452.238	0.33
452.593	0.35
452.949	0.28
453.304	0.38
453.659	0.4
454.014	0.44
454.369	0.47
454.724	0.43
455.079	0.28
455.434	0.28
455.789	0.26
456.144	0.25
456.499	0.23
456.853	0.21
457.208	0.17
457.563	0.15
457.918	0.1
458.272	0.17
458.627	0.19
458.981	0.26
459.336	0.31
459.69	0.31
460.045	0.28
460.399	0.31
460.754	0.28
461.108	0.25
461.462	0.32
461.817	0.34
462.171	0.37
462.525	0.34
462.879	0.37
463.233	0.35
463.587	0.36
463.941	0.32
464.295	0.37
464.649	0.33
465.003	0.3
465.357	0.33
465.711	0.32
466.065	0.3
466.418	0.29
466.772	0.35
467.126	0.35
467.479	0.37
467.833	0.4
468.186	0.46
468.54	0.4
468.893	0.37
469.247	0.38
469.6	0.36
469.954	0.35
470.307	0.39
470.66	0.38
471.013	0.42
471.367	0.39
471.72	0.35
472.073	0.37
472.426	0.42
472.779	0.41
473.132	0.44
473.485	0.47
473.838	0.4
474.191	0.35
474.544	0.33
474.896	0.29
475.249	0.28
475.602	0.36
475.955	0.38
476.307	0.39
476.66	0.42
477.012	0.43
477.365	0.4
477.717	0.38
478.07	0.43
478.422	0.44
478.775	0.42
479.127	0.38
479.479	0.4
479.831	0.36
480.184	0.31
480.536	0.35
480.888	0.41
481.24	0.42
481.592	0.41
481.944	0.45
482.296	0.41
482.648	0.37
483	0.38
483.352	0.33
483.703	0.31
484.055	0.34
484.407	0.35
484.759	0.34
485.11	0.37
485.462	0.36
485.813	0.35
486.165	0.32
486.516	0.31
486.868	0.32
487.219	0.33
487.571	0.3
487.922	0.31
488.273	0.3
488.624	0.28
488.976	0.28
489.327	0.29
489.678	0.28
490.029	0.29
490.38	0.27
490.731	0.28
491.082	0.31
491.433	0.32
491.784	0.33
492.135	0.34
492.485	0.38
492.836	0.37
493.187	0.37
493.537	0.34
493.888	0.34
494.239	0.26
494.589	0.22
494.94	0.23
495.29	0.3
495.641	0.33
495.991	0.38
496.341	0.39
496.692	0.39
497.042	0.32
497.392	0.29
497.742	0.28
498.092	0.3
498.442	0.28
498.793	0.29
499.143	0.33
499.493	0.28
499.842	0.29
500.192	0.34
500.542	0.34
500.892	0.31
501.242	0.34
501.591	0.29
501.941	0.27
502.291	0.29
502.64	0.32
502.99	0.35
503.339	0.39
503.689	0.39
504.038	0.37
504.388	0.41
504.737	0.46
505.086	0.44
505.436	0.45
505.785	0.48
506.134	0.44
506.483	0.4
506.832	0.43
507.181	0.44
507.53	0.43
507.879	0.41
508.228	0.35
508.577	0.3
508.926	0.26
509.275	0.3
509.624	0.32
509.972	0.33
510.321	0.39
510.67	0.41
511.018	0.35
511.367	0.35
511.715	0.34
512.064	0.31
512.412	0.34
512.761	0.35
513.109	0.36
513.457	0.37
513.806	0.39
514.154	0.4
514.502	0.4
514.85	0.4
515.198	0.36
515.546	0.34
515.894	0.34
516.242	0.34
516.59	0.32
516.938	0.39
517.286	0.38
517.634	0.38
517.981	0.37
518.329	0.37
518.677	0.33
519.024	0.33
519.372	0.3
519.72	0.34
520.067	0.33
520.415	0.31
520.762	0.35
521.109	0.37
521.457	0.34
521.804	0.3
522.151	0.36
522.498	0.29
522.846	0.29
523.193	0.3
523.54	0.33
523.887	0.38
524.234	0.43
524.581	0.45
524.928	0.43
525.275	0.43
525.621	0.39
525.968	0.35
526.315	0.35
526.662	0.35
527.008	0.34
527.355	0.35
527.701	0.35
528.048	0.34
528.394	0.34
528.741	0.35
529.087	0.36
529.434	0.35
529.78	0.34
530.126	0.36
530.472	0.37
530.819	0.32
531.165	0.35
531.511	0.34
531.857	0.34
532.203	0.31
532.549	0.34
532.895	0.32
533.241	0.38
533.586	0.36
533.932	0.37
534.278	0.42
534.624	0.45
534.969	0.43
535.315	0.45
535.661	0.42
536.006	0.34
536.352	0.39
536.697	0.38
537.042	0.4
537.388	0.43
537.733	0.41
538.078	0.37
538.424	0.36
538.769	0.37
539.114	0.36
539.459	0.41
539.804	0.45
540.149	0.46
540.494	0.46
540.839	0.45
541.184	0.44
541.529	0.41
541.873	0.39
542.218	0.37
542.563	0.36
542.908	0.36
543.252	0.35
543.597	0.36
543.941	0.36
544.286	0.39
544.63	0.42
544.975	0.43
545.319	0.45
545.663	0.46
546.007	0.47
546.352	0.45
546.696	0.47
547.04	0.47
547.384	0.47
547.728	0.46
548.072	0.46
548.416	0.47
548.76	0.44
549.104	0.36
549.448	0.38
549.791	0.37
550.135	0.31
550.479	0.31
550.823	0.37
551.166	0.36
551.51	0.41
551.853	0.47
552.197	0.44
552.54	0.48
552.883	0.44
553.227	0.46
553.57	0.44
553.913	0.51
554.257	0.51
554.6	0.55
554.943	0.52
555.286	0.56
555.629	0.47
555.972	0.45
556.315	0.46
556.658	0.47
557.001	0.43
557.343	0.43
557.686	0.43
558.029	0.36
558.371	0.3
558.714	0.32
559.057	0.39
559.399	0.4
559.742	0.48
560.084	0.54
560.427	0.55
560.769	0.54
561.111	0.5
561.453	0.48
561.796	0.52
562.138	0.53
562.48	0.52
562.822	0.57
563.164	0.56
563.506	0.53
563.848	0.45
564.19	0.48
564.532	0.43
564.874	0.47
565.215	0.47
565.557	0.45
565.899	0.45
566.24	0.53
566.582	0.48
566.924	0.5
567.265	0.54
567.606	0.54
567.948	0.5
568.289	0.52
568.631	0.51
568.972	0.52
569.313	0.44
569.654	0.44
569.995	0.42
570.336	0.45
570.677	0.51
571.018	0.56
571.359	0.58
571.7	0.6
572.041	0.59
572.382	0.53
572.723	0.58
573.064	0.57
573.404	0.6
573.745	0.59
574.085	0.65
574.426	0.65
574.766	0.62
575.107	0.64
575.447	0.67
575.788	0.64
576.128	0.58
576.468	0.65
576.808	0.6
577.149	0.56
577.489	0.56
577.829	0.63
578.169	0.6
578.509	0.61
578.849	0.68
579.189	0.73
579.529	0.77
579.868	0.8
580.208	0.82
580.548	0.83
580.887	0.9
581.227	0.89
581.567	0.9
581.906	0.92
582.246	0.87
582.585	0.78
582.925	0.78
583.264	0.73
583.603	0.78
583.942	0.69
584.282	0.81
584.621	0.85
584.96	0.96
585.299	1.02
585.638	1.15
585.977	1.16
586.316	1.26
586.655	1.31
586.994	1.28
587.332	1.32
587.671	1.35
588.01	1.31
588.348	1.33
588.687	1.32
589.026	1.33
589.364	1.31
589.703	1.41
590.041	1.35
590.379	1.33
590.718	1.42
591.056	1.58
591.394	1.63
591.732	1.78
592.07	1.93
592.409	1.93
592.747	1.94
593.085	1.95
593.423	1.93
593.76	1.96
594.098	2.03
594.436	2.08
594.774	2.1
595.112	2.15
595.449	2.28
595.787	2.38
596.124	2.42
596.462	2.53
596.799	2.67
597.137	2.77
597.474	2.86
597.812	3.04
598.149	3.18
598.486	3.26
598.823	3.37
599.16	3.52
599.498	3.57
599.835	3.62
600.172	3.76
600.509	3.98
600.845	4.14
601.182	4.33
601.519	4.55
601.856	4.72
602.193	4.83
602.529	4.98
602.866	5.1
603.202	5.33
603.539	5.5
603.875	5.64
604.212	5.78
604.548	6.03
604.885	6.22
605.221	6.42
605.557	6.66
605.893	6.88
606.23	7.08
606.566	7.21
606.902	7.46
607.238	7.73
607.574	8.01
607.91	8.26
608.245	8.59
608.581	8.95
608.917	9.18
609.253	9.5
609.588	9.89
609.924	10.16
610.26	10.4
610.595	10.68
610.931	10.93
611.266	11.18
611.601	11.46
611.937	11.73
612.272	12.01
612.607	12.37
612.942	12.63
613.278	13.13
613.613	13.5
613.948	13.95
614.283	14.26
614.618	14.75
614.953	15.01
615.287	15.47
615.622	15.87
615.957	16.4
616.292	16.73
616.626	17.19
616.961	17.54
617.295	17.92
617.63	18.28
617.964	18.64
618.299	18.95
618.633	19.31
618.968	19.75
619.302	20.12
619.636	20.64
619.97	21.16
620.304	21.67
620.638	22.01
620.972	22.48
621.306	22.76
621.64	23.1
621.974	23.4
622.308	23.85
622.642	24.19
622.976	24.56
623.309	24.74
623.643	25.08
623.977	25.43
624.31	25.68
624.644	26.04
624.977	26.46
625.31	26.84
625.644	27.27
625.977	27.54
626.31	28
626.643	28.39
626.977	28.63
627.31	28.87
627.643	29.34
627.976	29.51
628.309	29.89
628.642	30.34
628.974	30.64
629.307	30.95
629.64	31.33
629.973	31.58
630.305	31.86
630.638	32.22
630.971	32.48
631.303	32.84
631.636	33.12
631.968	33.38
632.3	33.59
632.633	33.77
632.965	34.03
633.297	34.27
633.629	34.39
633.961	34.67
634.293	34.99
634.625	35.24
634.957	35.56
635.289	36.04
635.621	36.21
635.953	36.45
636.285	36.54
636.617	36.66
636.948	36.79
637.28	37.1
637.611	37.28
637.943	37.58
638.274	37.75
638.606	37.99
638.937	38.3
639.269	38.65
639.6	38.93
639.931	39.32
640.262	39.54
640.593	39.53
640.924	39.53
641.255	39.57
641.586	39.45
641.917	39.48
642.248	39.85
642.579	39.85
642.91	40.05
643.24	40.55
643.571	40.72
643.902	40.58
644.232	40.87
644.563	41.22
644.893	41.36
645.224	41.59
645.554	41.83
645.884	42.14
646.215	42.16
646.545	42.09
646.875	42.18
647.205	42.31
647.535	42.16
647.865	42.21
648.195	42.16
648.525	42.34
648.855	42.37
649.185	42.74
649.515	42.91
649.844	43.04
650.174	43.13
650.504	43.47
650.833	43.4
651.163	43.57
651.492	43.91
651.822	43.94
652.151	44.01
652.48	44.05
652.81	44.15
653.139	44.27
653.468	44.52
653.797	44.47
654.126	44.64
654.455	44.62
654.784	44.48
655.113	44.18
655.442	44.45
655.771	44.69
656.099	44.75
656.428	45.24
656.757	45.71
657.085	45.56
657.414	45.64
657.742	45.83
658.071	45.7
658.399	45.63
658.728	45.76
659.056	45.71
659.384	45.82
659.712	45.88
660.04	45.99
660.369	46.14
660.697	46.43
661.025	46.4
661.353	46.55
661.68	46.6
662.008	46.62
662.336	46.66
662.664	46.8
662.991	46.84
663.319	46.95
663.647	47.14
663.974	46.94
664.302	46.98
664.629	46.97
664.956	46.95
665.284	47.14
665.611	47.45
665.938	47.43
666.265	47.61
666.593	47.86
666.92	47.89
667.247	47.89
667.574	47.97
667.9	47.91
668.227	48.17
668.554	48.23
668.881	48.05
669.208	48.34
669.534	48.22
669.861	48.07
670.187	48.18
670.514	48.35
670.84	48.18
671.167	48.48
671.493	48.45
671.819	48.3
672.146	48.59
672.472	48.85
672.798	49.07
673.124	49.31
673.45	49.37
673.776	49.36
674.102	49.57
674.428	49.6
674.754	49.8
675.079	49.95
675.405	49.79
