Data from Av-i1_Reflection_14-39-23-608.txt Node
Date: Tue Aug 16 14:39:23 CEST 2022
User: IDIV
Spectrometer: FLMS14958
Trigger mode: 0
Integration Time (sec): 1.000000E-1
Scans to average: 10
Electric dark correction enabled: true
Nonlinearity correction enabled: true
Boxcar width: 2
XAxis mode: Wavelengths
Number of Pixels in Spectrum: 2048
>>>>>Begin Spectral Data<<<<<
179.491	-1093.06
179.869	-2178.67
180.247	94.39
180.625	-56.16
181.003	-34.08
181.381	-104.94
181.759	-187.39
182.136	-1841.26
182.514	284.15
182.892	218.07
183.27	88.71
183.647	194.2
184.025	185.55
184.403	41.41
184.78	-101.85
185.158	158.6
185.536	-191.9
185.913	629.63
186.291	-118.11
186.668	-78.9
187.046	28.84
187.423	29.55
187.801	25.61
188.178	22.93
188.556	39.15
188.933	28.09
189.31	28.35
189.688	25.94
190.065	18.53
190.442	8.75
190.82	13.18
191.197	12.43
191.574	15.46
191.951	21.21
192.329	24.86
192.706	16.09
193.083	9.92
193.46	16.55
193.837	18.71
194.214	17.67
194.591	17.29
194.968	19.73
195.345	22.1
195.722	32.36
196.099	31.66
196.476	42.48
196.853	45.51
197.23	38.52
197.607	38.31
197.984	35.95
198.36	26.06
198.737	28.55
199.114	35.67
199.491	28.82
199.867	31.33
200.244	31.68
200.621	18.35
200.997	9.74
201.374	5.45
201.75	4.32
202.127	14.94
202.504	27.03
202.88	26.5
203.257	26.36
203.633	24.76
204.01	21.69
204.386	15.36
204.762	22.04
205.139	31.84
205.515	34.92
205.891	33.65
206.268	31.7
206.644	34.73
207.02	31.36
207.396	27.69
207.773	32.35
208.149	28.28
208.525	19.67
208.901	17.55
209.277	28.25
209.653	26.23
210.029	37.15
210.405	45.18
210.781	49.28
211.157	38.01
211.533	46.49
211.909	45.94
212.285	41.56
212.661	37.53
213.037	39.8
213.413	29.64
213.789	19.1
214.164	12.98
214.54	4.24
214.916	1.08
215.292	0.95
215.667	3.43
216.043	6.18
216.419	5.21
216.794	10.51
217.17	8.15
217.545	20.51
217.921	24.9
218.296	28.9
218.672	26.01
219.047	26.54
219.423	15.68
219.798	19.48
220.174	20.1
220.549	20.98
220.924	23.48
221.3	27.87
221.675	24.29
222.05	25.08
222.425	24.61
222.801	18.48
223.176	9.58
223.551	11.09
223.926	6.25
224.301	2.94
224.676	8.41
225.051	15.55
225.426	14.32
225.801	13.22
226.176	14.08
226.551	9.57
226.926	8.19
227.301	6.5
227.676	10.39
228.051	6.73
228.426	7.72
228.801	5.88
229.175	3.62
229.55	2.94
229.925	3.67
230.3	2.22
230.674	1.87
231.049	2.82
231.424	1.79
231.798	1.37
232.173	2.9
232.547	2.21
232.922	1.44
233.296	1.35
233.671	1.65
234.045	0.47
234.42	-0.29
234.794	1.49
235.168	1.35
235.543	0.81
235.917	2.12
236.291	3.46
236.666	1.57
237.04	2.11
237.414	1.86
237.788	1.75
238.162	1.83
238.537	2.39
238.911	2.68
239.285	3.09
239.659	2.37
240.033	1.56
240.407	1.6
240.781	0.97
241.155	0.25
241.529	0.62
241.903	1.06
242.277	1.07
242.65	0.88
243.024	1.33
243.398	1.15
243.772	0.95
244.146	1.02
244.519	1.32
244.893	1.35
245.267	1.54
245.64	1.42
246.014	1.64
246.387	1.24
246.761	0.85
247.135	0.76
247.508	0.73
247.882	0.46
248.255	0.46
248.628	0.38
249.002	0.28
249.375	0.39
249.749	0.48
250.122	0.54
250.495	0.71
250.868	0.86
251.242	0.83
251.615	1.02
251.988	0.72
252.361	1.01
252.734	0.78
253.107	0.95
253.481	1.06
253.854	1.75
254.227	1.64
254.6	2.08
254.973	1.58
255.346	1.24
255.718	0.74
256.091	0.56
256.464	1.21
256.837	1.45
257.21	1.33
257.583	1.38
257.955	1.45
258.328	0.6
258.701	0.89
259.074	0.99
259.446	0.64
259.819	0.59
260.191	0.66
260.564	0.36
260.936	0.29
261.309	0.26
261.681	0.21
262.054	0.18
262.426	0.54
262.799	0.55
263.171	0.63
263.543	0.84
263.916	1.04
264.288	0.9
264.66	1.13
265.033	1.42
265.405	1.26
265.777	0.94
266.149	1.05
266.521	0.95
266.893	0.81
267.265	0.79
267.637	0.61
268.009	0.76
268.381	0.6
268.753	0.48
269.125	0.45
269.497	0.87
269.869	0.85
270.241	1.1
270.613	1.3
270.985	1.36
271.356	0.99
271.728	0.67
272.1	0.69
272.471	0.71
272.843	0.58
273.215	0.69
273.586	0.81
273.958	0.6
274.329	0.41
274.701	0.44
275.072	0.41
275.444	0.53
275.815	0.61
276.187	0.96
276.558	0.8
276.929	0.99
277.301	1.13
277.672	1.1
278.043	0.82
278.415	1.1
278.786	1.22
279.157	0.98
279.528	0.86
279.899	0.92
280.27	0.99
280.641	0.68
281.012	0.5
281.383	0.52
281.754	0.52
282.125	0.48
282.496	0.48
282.867	0.4
283.238	0.54
283.609	0.65
283.98	0.44
284.35	0.39
284.721	0.47
285.092	0.59
285.462	0.69
285.833	0.76
286.204	0.86
286.574	0.99
286.945	1.03
287.315	0.84
287.686	0.87
288.056	0.88
288.427	0.85
288.797	0.64
289.168	0.77
289.538	0.92
289.908	0.67
290.279	0.74
290.649	0.62
291.019	0.35
291.39	0.18
291.76	0.42
292.13	0.57
292.5	0.74
292.87	0.83
293.24	0.88
293.61	1.06
293.98	0.66
294.35	0.64
294.72	0.86
295.09	0.86
295.46	0.52
295.83	0.57
296.2	0.61
296.57	0.66
296.939	0.48
297.309	0.64
297.679	0.86
298.049	0.81
298.418	0.75
298.788	0.93
299.158	0.73
299.527	0.61
299.897	0.45
300.266	0.4
300.636	0.38
301.005	0.67
301.375	0.6
301.744	0.79
302.113	0.94
302.483	1
302.852	0.78
303.221	0.62
303.591	0.63
303.96	0.69
304.329	0.7
304.698	0.77
305.067	1.01
305.436	1.01
305.806	1.03
306.175	0.87
306.544	0.97
306.913	0.56
307.282	0.61
307.65	0.61
308.019	0.78
308.388	0.62
308.757	0.67
309.126	0.64
309.495	0.66
309.863	0.78
310.232	0.92
310.601	1.01
310.969	0.8
311.338	0.51
311.707	0.29
312.075	0.22
312.444	0.13
312.812	0.25
313.181	0.55
313.549	0.66
313.918	0.77
314.286	0.91
314.654	1.1
315.023	0.86
315.391	1.05
315.759	1.13
316.127	1.14
316.496	1
316.864	1.05
317.232	0.86
317.6	0.85
317.968	0.91
318.336	0.96
318.704	0.87
319.072	0.8
319.44	0.88
319.808	0.65
320.176	0.5
320.544	0.6
320.912	0.55
321.28	0.35
321.647	0.7
322.015	0.89
322.383	1.05
322.75	0.8
323.118	0.68
323.486	0.62
323.853	0.14
324.221	0.04
324.588	0.11
324.956	0.06
325.323	-0.03
325.691	0.28
326.058	0.1
326.426	0.52
326.793	0.84
327.16	0.92
327.528	1.17
327.895	1.29
328.262	1.03
328.629	0.94
328.996	0.89
329.363	0.73
329.731	0.88
330.098	0.93
330.465	1
330.832	0.99
331.199	1.08
331.566	0.97
331.932	0.88
332.299	1.01
332.666	1.2
333.033	1.19
333.4	1.13
333.766	1.22
334.133	0.8
334.5	0.63
334.867	0.65
335.233	0.64
335.6	0.81
335.966	0.95
336.333	0.81
336.699	0.74
337.066	0.96
337.432	0.91
337.799	1.18
338.165	1.62
338.531	1.43
338.898	1.31
339.264	1
339.63	0.77
339.996	0.65
340.363	0.85
340.729	0.73
341.095	0.94
341.461	0.73
341.827	0.48
342.193	0.61
342.559	0.59
342.925	0.63
343.291	0.67
343.657	0.76
344.023	0.43
344.388	0.68
344.754	0.74
345.12	0.92
345.486	1.13
345.851	1.42
346.217	1.16
346.583	1.01
346.948	0.99
347.314	0.52
347.679	0.39
348.045	0.62
348.41	0.61
348.776	0.47
349.141	0.9
349.507	1.04
349.872	1.07
350.237	1.17
350.603	1.34
350.968	1.18
351.333	0.93
351.698	0.87
352.063	1.03
352.428	0.94
352.794	0.83
353.159	0.95
353.524	0.99
353.889	0.83
354.254	0.7
354.618	0.93
354.983	0.95
355.348	0.89
355.713	0.98
356.078	1.11
356.443	0.97
356.807	0.87
357.172	0.67
357.537	0.52
357.901	0.56
358.266	0.5
358.63	0.58
358.995	0.75
359.359	0.73
359.724	0.76
360.088	0.84
360.453	0.74
360.817	0.74
361.181	0.73
361.546	0.53
361.91	0.53
362.274	0.47
362.638	0.4
363.003	0.54
363.367	0.63
363.731	0.64
364.095	0.77
364.459	0.88
364.823	0.82
365.187	1.01
365.551	1.11
365.915	1.13
366.279	1.03
366.642	1.01
367.006	0.87
367.37	0.74
367.734	0.62
368.097	0.74
368.461	0.8
368.825	0.75
369.188	0.88
369.552	1.11
369.915	1.03
370.279	1.02
370.642	1.1
371.006	1.08
371.369	0.87
371.732	0.74
372.096	0.57
372.459	0.5
372.822	0.35
373.186	0.43
373.549	0.55
373.912	0.56
374.275	0.62
374.638	0.63
375.001	0.73
375.364	0.78
375.727	0.82
376.09	0.82
376.453	0.76
376.816	0.57
377.179	0.5
377.542	0.7
377.904	0.52
378.267	0.55
378.63	0.71
378.993	0.77
379.355	0.58
379.718	0.77
380.08	0.72
380.443	0.66
380.806	0.76
381.168	0.78
381.53	0.74
381.893	0.9
382.255	0.93
382.618	0.77
382.98	0.82
383.342	0.8
383.704	0.85
384.067	0.73
384.429	0.72
384.791	0.63
385.153	0.7
385.515	0.58
385.877	0.64
386.239	0.76
386.601	0.91
386.963	0.89
387.325	0.88
387.687	0.97
388.049	0.99
388.41	0.95
388.772	0.92
389.134	0.77
389.496	0.76
389.857	0.77
390.219	0.74
390.58	0.72
390.942	0.88
391.303	0.81
391.665	0.76
392.026	0.83
392.388	0.86
392.749	0.99
393.111	1.03
393.472	0.92
393.833	0.69
394.194	0.73
394.556	0.76
394.917	0.83
395.278	0.84
395.639	0.94
396	0.81
396.361	0.71
396.722	0.73
397.083	0.74
397.444	0.78
397.805	0.9
398.166	0.81
398.526	0.67
398.887	0.65
399.248	0.64
399.609	0.71
399.969	0.8
400.33	0.75
400.691	0.93
401.051	0.87
401.412	0.75
401.772	0.64
402.133	0.66
402.493	0.47
402.853	0.5
403.214	0.47
403.574	0.54
403.934	0.64
404.295	0.73
404.655	0.77
405.015	0.81
405.375	0.84
405.735	0.78
406.095	0.88
406.455	0.86
406.815	0.82
407.175	0.73
407.535	0.74
407.895	0.58
408.255	0.6
408.615	0.66
408.975	0.74
409.334	0.82
409.694	0.89
410.054	0.8
410.413	0.84
410.773	0.81
411.133	0.78
411.492	0.84
411.852	1.02
412.211	1.14
412.571	1.28
412.93	1.21
413.289	1.11
413.649	1.11
414.008	0.93
414.367	0.86
414.726	1.03
415.086	1.03
415.445	0.9
415.804	0.97
416.163	0.89
416.522	0.7
416.881	0.67
417.24	0.7
417.599	0.59
417.958	0.6
418.316	0.66
418.675	0.68
419.034	0.69
419.393	0.77
419.751	0.76
420.11	0.76
420.469	0.76
420.827	0.79
421.186	0.77
421.544	0.79
421.903	0.8
422.261	0.84
422.62	0.79
422.978	0.83
423.336	0.8
423.695	0.76
424.053	0.74
424.411	0.77
424.769	0.71
425.128	0.73
425.486	0.76
425.844	0.75
426.202	0.74
426.56	0.87
426.918	0.9
427.276	0.95
427.634	0.96
427.991	0.88
428.349	0.78
428.707	0.87
429.065	0.83
429.423	0.84
429.78	0.97
430.138	0.94
430.495	0.84
430.853	0.82
431.211	0.88
431.568	0.87
431.925	0.92
432.283	0.92
432.64	0.84
432.998	0.79
433.355	0.8
433.712	0.72
434.069	0.69
434.427	0.73
434.784	0.72
435.141	0.64
435.498	0.63
435.855	0.64
436.212	0.66
436.569	0.7
436.926	0.75
437.283	0.79
437.64	0.84
437.996	0.76
438.353	0.71
438.71	0.67
439.067	0.66
439.423	0.58
439.78	0.62
440.137	0.64
440.493	0.68
440.85	0.74
441.206	0.78
441.563	0.76
441.919	0.77
442.275	0.73
442.632	0.68
442.988	0.67
443.344	0.74
443.7	0.74
444.057	0.81
444.413	0.81
444.769	0.75
445.125	0.71
445.481	0.7
445.837	0.66
446.193	0.62
446.549	0.67
446.905	0.64
447.26	0.59
447.616	0.54
447.972	0.57
448.328	0.58
448.683	0.68
449.039	0.74
449.395	0.8
449.75	0.82
450.106	0.88
450.461	0.75
450.817	0.74
451.172	0.76
451.527	0.73
451.883	0.65
452.238	0.73
452.593	0.72
452.949	0.69
453.304	0.75
453.659	0.8
454.014	0.78
454.369	0.77
454.724	0.71
455.079	0.71
455.434	0.67
455.789	0.63
456.144	0.67
456.499	0.71
456.853	0.64
457.208	0.62
457.563	0.66
457.918	0.58
458.272	0.54
458.627	0.51
458.981	0.51
459.336	0.52
459.69	0.48
460.045	0.55
460.399	0.58
460.754	0.61
461.108	0.61
461.462	0.7
461.817	0.67
462.171	0.68
462.525	0.67
462.879	0.67
463.233	0.69
463.587	0.69
463.941	0.69
464.295	0.71
464.649	0.69
465.003	0.64
465.357	0.68
465.711	0.62
466.065	0.6
466.418	0.6
466.772	0.67
467.126	0.6
467.479	0.63
467.833	0.63
468.186	0.7
468.54	0.64
468.893	0.65
469.247	0.68
469.6	0.76
469.954	0.69
470.307	0.65
470.66	0.66
471.013	0.7
471.367	0.61
471.72	0.56
472.073	0.61
472.426	0.7
472.779	0.64
473.132	0.71
473.485	0.79
473.838	0.82
474.191	0.76
474.544	0.8
474.896	0.78
475.249	0.72
475.602	0.75
475.955	0.77
476.307	0.71
476.66	0.67
477.012	0.66
477.365	0.6
477.717	0.56
478.07	0.65
478.422	0.63
478.775	0.69
479.127	0.71
479.479	0.71
479.831	0.67
480.184	0.64
480.536	0.62
480.888	0.63
481.24	0.67
481.592	0.64
481.944	0.71
482.296	0.68
482.648	0.61
483	0.58
483.352	0.55
483.703	0.51
484.055	0.53
484.407	0.54
484.759	0.53
485.11	0.54
485.462	0.54
485.813	0.52
486.165	0.51
486.516	0.52
486.868	0.53
487.219	0.52
487.571	0.49
487.922	0.53
488.273	0.51
488.624	0.5
488.976	0.53
489.327	0.58
489.678	0.55
490.029	0.6
490.38	0.58
490.731	0.56
491.082	0.55
491.433	0.55
491.784	0.51
492.135	0.53
492.485	0.58
492.836	0.6
493.187	0.59
493.537	0.62
493.888	0.61
494.239	0.58
494.589	0.57
494.94	0.58
495.29	0.6
495.641	0.67
495.991	0.69
496.341	0.71
496.692	0.73
497.042	0.71
497.392	0.64
497.742	0.61
498.092	0.59
498.442	0.52
498.793	0.48
499.143	0.5
499.493	0.5
499.842	0.5
500.192	0.56
500.542	0.6
500.892	0.57
501.242	0.61
501.591	0.59
501.941	0.58
502.291	0.6
502.64	0.63
502.99	0.63
503.339	0.7
503.689	0.68
504.038	0.63
504.388	0.69
504.737	0.7
505.086	0.63
505.436	0.66
505.785	0.66
506.134	0.62
506.483	0.54
506.832	0.56
507.181	0.59
507.53	0.57
507.879	0.54
508.228	0.53
508.577	0.55
508.926	0.53
509.275	0.62
509.624	0.67
509.972	0.71
510.321	0.7
510.67	0.71
511.018	0.65
511.367	0.61
511.715	0.6
512.064	0.61
512.412	0.62
512.761	0.6
513.109	0.65
513.457	0.67
513.806	0.69
514.154	0.67
514.502	0.68
514.85	0.63
515.198	0.58
515.546	0.55
515.894	0.56
516.242	0.64
516.59	0.69
516.938	0.77
517.286	0.8
517.634	0.8
517.981	0.73
518.329	0.71
518.677	0.64
519.024	0.64
519.372	0.59
519.72	0.58
520.067	0.56
520.415	0.53
520.762	0.54
521.109	0.58
521.457	0.57
521.804	0.57
522.151	0.64
522.498	0.61
522.846	0.62
523.193	0.67
523.54	0.72
523.887	0.73
524.234	0.74
524.581	0.7
524.928	0.69
525.275	0.65
525.621	0.6
525.968	0.58
526.315	0.61
526.662	0.62
527.008	0.62
527.355	0.63
527.701	0.61
528.048	0.63
528.394	0.6
528.741	0.6
529.087	0.61
529.434	0.61
529.78	0.58
530.126	0.59
530.472	0.6
530.819	0.59
531.165	0.61
531.511	0.66
531.857	0.67
532.203	0.63
532.549	0.65
532.895	0.63
533.241	0.63
533.586	0.63
533.932	0.65
534.278	0.68
534.624	0.69
534.969	0.71
535.315	0.71
535.661	0.72
536.006	0.68
536.352	0.71
536.697	0.7
537.042	0.69
537.388	0.72
537.733	0.73
538.078	0.73
538.424	0.73
538.769	0.77
539.114	0.74
539.459	0.72
539.804	0.71
540.149	0.68
540.494	0.66
540.839	0.7
541.184	0.68
541.529	0.66
541.873	0.68
542.218	0.68
542.563	0.66
542.908	0.69
543.252	0.69
543.597	0.71
543.941	0.71
544.286	0.74
544.63	0.72
544.975	0.76
545.319	0.78
545.663	0.79
546.007	0.79
546.352	0.8
546.696	0.78
547.04	0.76
547.384	0.8
547.728	0.79
548.072	0.81
548.416	0.84
548.76	0.81
549.104	0.72
549.448	0.75
549.791	0.73
550.135	0.71
550.479	0.72
550.823	0.81
551.166	0.8
551.51	0.85
551.853	0.92
552.197	0.91
552.54	0.84
552.883	0.79
553.227	0.76
553.57	0.69
553.913	0.69
554.257	0.71
554.6	0.77
554.943	0.78
555.286	0.8
555.629	0.84
555.972	0.84
556.315	0.81
556.658	0.79
557.001	0.8
557.343	0.72
557.686	0.76
558.029	0.69
558.371	0.7
558.714	0.78
559.057	0.83
559.399	0.75
559.742	0.86
560.084	0.82
560.427	0.78
560.769	0.81
561.111	0.82
561.453	0.79
561.796	0.82
562.138	0.79
562.48	0.8
562.822	0.81
563.164	0.83
563.506	0.8
563.848	0.8
564.19	0.79
564.532	0.82
564.874	0.84
565.215	0.88
565.557	0.88
565.899	0.88
566.24	0.89
566.582	0.82
566.924	0.83
567.265	0.85
567.606	0.85
567.948	0.84
568.289	0.92
568.631	0.94
568.972	0.93
569.313	0.88
569.654	0.92
569.995	0.86
570.336	0.79
570.677	0.8
571.018	0.84
571.359	0.87
571.7	0.92
572.041	1
572.382	1
572.723	1.06
573.064	1.09
573.404	1.11
573.745	1.11
574.085	1.15
574.426	1.14
574.766	1.11
575.107	1.14
575.447	1.18
575.788	1.18
576.128	1.16
576.468	1.17
576.808	1.11
577.149	1.13
577.489	1.08
577.829	1.1
578.169	1.12
578.509	1.18
578.849	1.22
579.189	1.3
579.529	1.36
579.868	1.36
580.208	1.35
580.548	1.33
580.887	1.36
581.227	1.32
581.567	1.38
581.906	1.44
582.246	1.44
582.585	1.47
582.925	1.53
583.264	1.56
583.603	1.59
583.942	1.51
584.282	1.55
584.621	1.57
584.96	1.63
585.299	1.8
585.638	1.95
585.977	2.05
586.316	2.11
586.655	2.16
586.994	2.08
587.332	2.13
587.671	2.14
588.01	2.19
588.348	2.2
588.687	2.19
589.026	2.19
589.364	2.24
589.703	2.3
590.041	2.27
590.379	2.25
590.718	2.32
591.056	2.37
591.394	2.41
591.732	2.59
592.07	2.74
592.409	2.82
592.747	2.91
593.085	3.02
593.423	3.06
593.76	3.14
594.098	3.23
594.436	3.32
594.774	3.37
595.112	3.42
595.449	3.57
595.787	3.64
596.124	3.6
596.462	3.59
596.799	3.76
597.137	3.9
597.474	4.04
597.812	4.26
598.149	4.51
598.486	4.68
598.823	4.84
599.16	5.01
599.498	5.23
599.835	5.33
600.172	5.49
600.509	5.63
600.845	5.78
601.182	5.84
601.519	6.08
601.856	6.3
602.193	6.48
602.529	6.72
602.866	7
603.202	7.23
603.539	7.34
603.875	7.54
604.212	7.67
604.548	7.92
604.885	8.14
605.221	8.4
605.557	8.62
605.893	8.87
606.23	9.08
606.566	9.24
606.902	9.52
607.238	9.82
607.574	10.17
607.91	10.45
608.245	10.88
608.581	11.11
608.917	11.48
609.253	11.74
609.588	12.03
609.924	12.27
610.26	12.59
610.595	12.87
610.931	13.24
611.266	13.55
611.601	13.92
611.937	14.22
612.272	14.55
612.607	14.97
612.942	15.34
613.278	15.76
613.613	16.24
613.948	16.58
614.283	16.92
614.618	17.27
614.953	17.58
615.287	17.87
615.622	18.21
615.957	18.5
616.292	18.97
616.626	19.47
616.961	19.92
617.295	20.35
617.63	20.72
617.964	21.01
618.299	21.36
618.633	21.68
618.968	22.1
619.302	22.5
619.636	22.94
619.97	23.24
620.304	23.65
620.638	24.06
620.972	24.5
621.306	24.96
621.64	25.27
621.974	25.68
622.308	26.06
622.642	26.34
622.976	26.65
623.309	27.02
623.643	27.31
623.977	27.58
624.31	27.82
624.644	28.16
624.977	28.52
625.31	28.9
625.644	29.34
625.977	29.8
626.31	30.14
626.643	30.42
626.977	30.65
627.31	30.74
627.643	30.87
627.976	31.1
628.309	31.35
628.642	31.66
628.974	31.97
629.307	32.47
629.64	32.68
629.973	32.96
630.305	33.19
630.638	33.69
630.971	33.91
631.303	34.25
631.636	34.57
631.968	34.91
632.3	35.06
632.633	35.16
632.965	35.34
633.297	35.37
633.629	35.57
633.961	35.66
634.293	36.08
634.625	36.28
634.957	36.5
635.289	36.76
635.621	36.95
635.953	37.01
636.285	37.13
636.617	37.41
636.948	37.47
637.28	37.79
637.611	37.97
637.943	38.4
638.274	38.65
638.606	38.91
638.937	39.02
639.269	39.28
639.6	39.39
639.931	39.72
640.262	39.9
640.593	40.05
640.924	40.2
641.255	40.13
641.586	39.94
641.917	40.07
642.248	40.24
642.579	40.19
642.91	40.41
643.24	40.66
643.571	40.72
643.902	40.61
644.232	40.93
644.563	41.03
644.893	41.2
645.224	41.38
645.554	41.77
645.884	41.85
646.215	42.08
646.545	42.18
646.875	42.21
647.205	42.24
647.535	42.05
647.865	42.16
648.195	42.07
648.525	42.14
648.855	42.41
649.185	42.67
649.515	42.74
649.844	42.97
650.174	43.13
650.504	43.23
650.833	43.38
651.163	43.49
651.492	43.6
651.822	43.72
652.151	43.64
652.48	43.75
652.81	43.83
653.139	43.89
653.468	44.04
653.797	44.1
654.126	44.04
654.455	44.04
654.784	44.13
655.113	44.03
655.442	44.13
655.771	44.4
656.099	44.39
656.428	44.76
656.757	44.99
657.085	45.07
657.414	45.14
657.742	45.49
658.071	45.29
658.399	45.26
658.728	45.38
659.056	45.42
659.384	45.47
659.712	45.46
660.04	45.37
660.369	45.34
660.697	45.48
661.025	45.41
661.353	45.53
661.68	45.9
662.008	45.95
662.336	45.98
662.664	46.22
662.991	46.35
663.319	46.53
663.647	46.71
663.974	46.62
664.302	46.41
664.629	46.34
664.956	46.25
665.284	46.37
665.611	46.38
665.938	46.34
666.265	46.27
666.593	46.46
666.92	46.5
667.247	46.74
667.574	47.24
667.9	47.27
668.227	47.2
668.554	47.21
668.881	46.92
669.208	46.71
669.534	46.81
669.861	47.02
670.187	46.85
670.514	47.3
670.84	47.35
671.167	47.64
671.493	47.26
671.819	47.59
672.146	47.5
672.472	47.54
672.798	47.49
673.124	47.96
673.45	47.96
673.776	48.28
674.102	48.43
674.428	48.48
674.754	48.51
675.079	48.46
675.405	48.1
675.731	48.07
676.056	48.27
676.382	48.03
