Data from Capu-i1_Reflection_16-01-07-371.txt Node
Date: Tue Aug 16 16:01:07 CEST 2022
User: IDIV
Spectrometer: FLMS14958
Trigger mode: 0
Integration Time (sec): 1.000000E-1
Scans to average: 10
Electric dark correction enabled: true
Nonlinearity correction enabled: true
Boxcar width: 2
XAxis mode: Wavelengths
Number of Pixels in Spectrum: 2048
>>>>>Begin Spectral Data<<<<<
179.491	122.69
179.869	114.45
180.247	116.29
180.625	50.09
181.003	-66.95
181.381	-448.41
181.759	-16154.13
182.136	-1630.05
182.514	-620.63
182.892	-260.98
183.27	6016
183.647	-189.77
184.025	31.07
184.403	-139.66
184.78	-138.27
185.158	-18.01
185.536	-50.41
185.913	-1882.7
186.291	2554.85
186.668	104.73
187.046	122.42
187.423	131.98
187.801	-92.7
188.178	74.19
188.556	20.43
188.933	-5.28
189.31	-8.9
189.688	-5.82
190.065	-4.29
190.442	7.89
190.82	30.27
191.197	39.6
191.574	32.19
191.951	30.13
192.329	24.5
192.706	14.75
193.083	17.73
193.46	32.64
193.837	29.06
194.214	28.5
194.591	34.82
194.968	19.97
195.345	4.84
195.722	-7.9
196.099	-3.34
196.476	5.1
196.853	3.88
197.23	18.49
197.607	8.29
197.984	1.66
198.36	-17.55
198.737	-10.93
199.114	-8.93
199.491	18.66
199.867	20.19
200.244	23.53
200.621	41.95
200.997	38.9
201.374	31.83
201.75	23.16
202.127	16.98
202.504	5.09
202.88	8.85
203.257	11.67
203.633	20.18
204.01	24.53
204.386	22.89
204.762	23.9
205.139	22.73
205.515	16.27
205.891	11.02
206.268	4.82
206.644	-6.13
207.02	-1.99
207.396	-4.2
207.773	1.67
208.149	7.57
208.525	12.8
208.901	15.61
209.277	25.09
209.653	26.52
210.029	31.51
210.405	36.66
210.781	34.77
211.157	33.56
211.533	34.45
211.909	28.72
212.285	29.28
212.661	26.2
213.037	28.54
213.413	28.88
213.789	21.98
214.164	13.94
214.54	13.44
214.916	8.23
215.292	5.98
215.667	18.83
216.043	28.76
216.419	27.88
216.794	33.69
217.17	32.13
217.545	21.34
217.921	15.47
218.296	18.22
218.672	17.01
219.047	19.94
219.423	24.14
219.798	26.43
220.174	22.76
220.549	19.51
220.924	10.24
221.3	17.1
221.675	18.05
222.05	18.66
222.425	19.79
222.801	27.25
223.176	19.34
223.551	21.31
223.926	22.39
224.301	21.27
224.676	23.48
225.051	27.9
225.426	19.87
225.801	15.8
226.176	17.85
226.551	10.78
226.926	8.17
227.301	12.42
227.676	13.7
228.051	15.78
228.426	17.99
228.801	17.61
229.175	17.73
229.55	18.38
229.925	17.87
230.3	18.98
230.674	19.39
231.049	20.06
231.424	19.52
231.798	17.97
232.173	17.22
232.547	18.25
232.922	16.88
233.296	16.65
233.671	17.63
234.045	18.67
234.42	16.7
234.794	15.79
235.168	15.55
235.543	14.82
235.917	13.01
236.291	13.97
236.666	14.7
237.04	14.72
237.414	15.86
237.788	15.79
238.162	14.61
238.537	13.87
238.911	14.05
239.285	12.6
239.659	12.26
240.033	13.06
240.407	13.48
240.781	13.57
241.155	13.4
241.529	13.58
241.903	13.66
242.277	13.53
242.65	13.2
243.024	13.6
243.398	13.81
243.772	13.64
244.146	13.4
244.519	13.15
244.893	12.9
245.267	12.36
245.64	12.33
246.014	12.62
246.387	13.15
246.761	13.28
247.135	13.36
247.508	13.42
247.882	13.6
248.255	13.7
248.628	13.57
249.002	13.7
249.375	13.7
249.749	13.67
250.122	13.67
250.495	13.94
250.868	14.21
251.242	14.22
251.615	13.81
251.988	13.66
252.361	13.79
252.734	13.34
253.107	13.44
253.481	13.63
253.854	13.79
254.227	13.76
254.6	14.14
254.973	14.04
255.346	14.08
255.718	13.94
256.091	13.45
256.464	12.89
256.837	12.92
257.21	12.74
257.583	12.85
257.955	13.35
258.328	13.94
258.701	13.97
259.074	13.91
259.446	13.89
259.819	13.63
260.191	13.57
260.564	13.44
260.936	13.47
261.309	13.37
261.681	13.42
262.054	13.25
262.426	13.32
262.799	13.21
263.171	13.33
263.543	13.37
263.916	13.54
264.288	13.7
264.66	13.77
265.033	13.36
265.405	13.4
265.777	13.29
266.149	13.25
266.521	13.4
266.893	13.56
267.265	13.62
267.637	13.4
268.009	13.48
268.381	13.15
268.753	13.2
269.125	13.07
269.497	13.06
269.869	13.01
270.241	13.24
270.613	13.21
270.985	13.11
271.356	13.3
271.728	13.17
272.1	13.19
272.471	13.29
272.843	13.31
273.215	13.46
273.586	13.57
273.958	13.79
274.329	13.85
274.701	13.96
275.072	13.58
275.444	13.75
275.815	13.41
276.187	13.49
276.558	13.54
276.929	13.47
277.301	13.2
277.672	13.41
278.043	13.27
278.415	13.13
278.786	13.57
279.157	13.68
279.528	13.78
279.899	13.74
280.27	13.64
280.641	13.27
281.012	13.25
281.383	12.86
281.754	12.86
282.125	13.19
282.496	13.51
282.867	13.43
283.238	13.57
283.609	13.51
283.98	13.43
284.35	13.07
284.721	13.1
285.092	12.92
285.462	12.81
285.833	12.69
286.204	13.03
286.574	13.04
286.945	13.26
287.315	13.23
287.686	13.34
288.056	13.08
288.427	13.14
288.797	12.85
289.168	13.01
289.538	12.88
289.908	12.87
290.279	12.76
290.649	12.9
291.019	12.86
291.39	12.98
291.76	13.06
292.13	13.25
292.5	13.22
292.87	13.09
293.24	12.92
293.61	12.82
293.98	12.43
294.35	12.43
294.72	12.66
295.09	12.72
295.46	12.7
295.83	12.88
296.2	12.83
296.57	13
296.939	13.04
297.309	12.99
297.679	12.9
298.049	13.05
298.418	12.7
298.788	12.5
299.158	12.6
299.527	12.43
299.897	12.2
300.266	12.22
300.636	12.31
301.005	12.02
301.375	12.45
301.744	12.49
302.113	12.75
302.483	12.65
302.852	12.94
303.221	12.77
303.591	12.68
303.96	12.79
304.329	12.87
304.698	12.79
305.067	12.5
305.436	12.7
305.806	12.34
306.175	12.22
306.544	12.15
306.913	12.42
307.282	12.6
307.65	12.87
308.019	13.13
308.388	13.23
308.757	13.56
309.126	13.65
309.495	13.35
309.863	13.31
310.232	13.11
310.601	12.77
310.969	12.53
311.338	12.71
311.707	12.54
312.075	12.57
312.444	12.53
312.812	12.43
313.181	12.41
313.549	12.57
313.918	12.8
314.286	13.06
314.654	13.27
315.023	13.16
315.391	13.05
315.759	12.78
316.127	12.69
316.496	12.35
316.864	12.4
317.232	12.58
317.6	12.71
317.968	12.61
318.336	12.69
318.704	12.6
319.072	12.3
319.44	12.29
319.808	12.05
320.176	11.95
320.544	11.5
320.912	11.43
321.28	11.44
321.647	11.49
322.015	11.44
322.383	12.06
322.75	12.12
323.118	11.94
323.486	11.92
323.853	12.07
324.221	11.91
324.588	12.03
324.956	12.04
325.323	12.05
325.691	12.06
326.058	11.83
326.426	11.8
326.793	11.55
327.16	11.47
327.528	11.3
327.895	11.76
328.262	11.89
328.629	12.15
328.996	12.32
329.363	12.47
329.731	12.07
330.098	11.79
330.465	11.52
330.832	11.31
331.199	11.06
331.566	11.3
331.932	11.28
332.299	11.47
332.666	11.47
333.033	11.44
333.4	11.09
333.766	10.97
334.133	11.23
334.5	11.18
334.867	11.27
335.233	11.54
335.6	11.54
335.966	11.15
336.333	11.47
336.699	11.47
337.066	11.36
337.432	11.48
337.799	11.67
338.165	11.5
338.531	11.56
338.898	11.76
339.264	11.69
339.63	11.59
339.996	11.53
340.363	11.56
340.729	11.25
341.095	11.13
341.461	11.14
341.827	11.18
342.193	10.92
342.559	11.2
342.925	11.38
343.291	11.41
343.657	11.4
344.023	11.43
344.388	11.12
344.754	10.98
345.12	10.88
345.486	10.99
345.851	11.16
346.217	11.27
346.583	11.33
346.948	11.3
347.314	11.26
347.679	11.09
348.045	11.15
348.41	11.33
348.776	11.28
349.141	11.27
349.507	11.36
349.872	11.16
350.237	10.95
350.603	10.96
350.968	10.92
351.333	10.98
351.698	11.2
352.063	11.45
352.428	11.5
352.794	11.3
353.159	11.11
353.524	10.97
353.889	10.67
354.254	10.53
354.618	10.76
354.983	10.81
355.348	10.76
355.713	10.78
356.078	10.81
356.443	10.77
356.807	10.77
357.172	11.04
357.537	11.15
357.901	11.27
358.266	11.22
358.63	11.25
358.995	10.99
359.359	10.75
359.724	10.58
360.088	10.69
360.453	10.7
360.817	10.6
361.181	10.59
361.546	10.69
361.91	10.62
362.274	10.62
362.638	10.78
363.003	10.86
363.367	10.73
363.731	10.83
364.095	10.57
364.459	10.5
364.823	10.48
365.187	10.54
365.551	10.52
365.915	10.75
366.279	10.83
366.642	10.83
367.006	10.96
367.37	10.63
367.734	10.54
368.097	10.35
368.461	10.56
368.825	10.55
369.188	10.86
369.552	10.82
369.915	10.85
370.279	10.64
370.642	10.5
371.006	10.25
371.369	10.29
371.732	10.54
372.096	10.58
372.459	10.75
372.822	10.91
373.186	10.89
373.549	10.65
373.912	10.7
374.275	10.51
374.638	10.53
375.001	10.51
375.364	10.53
375.727	10.58
376.09	10.55
376.453	10.37
376.816	10.43
377.179	10.29
377.542	10.2
377.904	10.3
378.267	10.54
378.63	10.5
378.993	10.7
379.355	10.66
379.718	10.48
380.08	10.47
380.443	10.54
380.806	10.44
381.168	10.52
381.53	10.61
381.893	10.39
382.255	10.41
382.618	10.4
382.98	10.27
383.342	10.2
383.704	10.27
384.067	10.15
384.429	10.15
384.791	10.06
385.153	10.15
385.515	10.12
385.877	10.15
386.239	10.16
386.601	10.35
386.963	10.44
387.325	10.52
387.687	10.52
388.049	10.59
388.41	10.35
388.772	10.25
389.134	10.22
389.496	10.15
389.857	10.11
390.219	10.26
390.58	10.23
390.942	10.21
391.303	10.16
391.665	10.11
392.026	10.03
392.388	10.04
392.749	10.05
393.111	10.16
393.472	10.13
393.833	10.18
394.194	10.12
394.556	10
394.917	9.92
395.278	9.95
395.639	9.99
396	9.98
396.361	10.13
396.722	10
397.083	10.03
397.444	10.01
397.805	10
398.166	9.89
398.526	10.1
398.887	10.12
399.248	10.19
399.609	10.17
399.969	10.11
400.33	10.09
400.691	10.04
401.051	9.92
401.412	9.92
401.772	9.9
402.133	9.87
402.493	9.83
402.853	9.89
403.214	9.87
403.574	9.98
403.934	9.94
404.295	9.95
404.655	9.96
405.015	9.98
405.375	9.94
405.735	9.86
406.095	9.96
406.455	9.96
406.815	9.94
407.175	9.94
407.535	10.01
407.895	9.91
408.255	9.89
408.615	9.95
408.975	9.99
409.334	10.01
409.694	9.9
410.054	9.91
410.413	9.86
410.773	9.87
411.133	9.81
411.492	9.92
411.852	9.88
412.211	9.93
412.571	9.87
412.93	9.82
413.289	9.78
413.649	9.72
414.008	9.78
414.367	9.68
414.726	9.76
415.086	9.79
415.445	9.91
415.804	9.95
416.163	10.17
416.522	10.11
416.881	10.1
417.24	10.03
417.599	9.96
417.958	9.94
418.316	9.97
418.675	9.94
419.034	9.99
419.393	9.97
419.751	9.87
420.11	9.87
420.469	9.89
420.827	9.86
421.186	9.88
421.544	9.94
421.903	9.93
422.261	9.87
422.62	9.83
422.978	9.78
423.336	9.71
423.695	9.73
424.053	9.83
424.411	9.87
424.769	9.85
425.128	9.86
425.486	9.84
425.844	9.78
426.202	9.75
426.56	9.78
426.918	9.81
427.276	9.72
427.634	9.63
427.991	9.62
428.349	9.61
428.707	9.63
429.065	9.72
429.423	9.86
429.78	9.81
430.138	9.82
430.495	9.82
430.853	9.8
431.211	9.76
431.568	9.73
431.925	9.7
432.283	9.69
432.64	9.77
432.998	9.75
433.355	9.8
433.712	9.85
434.069	9.82
434.427	9.76
434.784	9.67
435.141	9.64
435.498	9.63
435.855	9.68
436.212	9.68
436.569	9.78
436.926	9.8
437.283	9.77
437.64	9.77
437.996	9.83
438.353	9.82
438.71	9.81
439.067	9.81
439.423	9.82
439.78	9.82
440.137	9.8
440.493	9.82
440.85	9.83
441.206	9.81
441.563	9.8
441.919	9.81
442.275	9.83
442.632	9.83
442.988	9.77
443.344	9.82
443.7	9.81
444.057	9.78
444.413	9.76
444.769	9.76
445.125	9.7
445.481	9.72
445.837	9.73
446.193	9.74
446.549	9.75
446.905	9.79
447.26	9.78
447.616	9.77
447.972	9.71
448.328	9.67
448.683	9.63
449.039	9.67
449.395	9.73
449.75	9.72
450.106	9.83
450.461	9.74
450.817	9.55
451.172	9.45
451.527	9.47
451.883	9.36
452.238	9.37
452.593	9.46
452.949	9.51
453.304	9.51
453.659	9.54
454.014	9.6
454.369	9.59
454.724	9.59
455.079	9.65
455.434	9.59
455.789	9.58
456.144	9.65
456.499	9.57
456.853	9.54
457.208	9.61
457.563	9.59
457.918	9.56
458.272	9.57
458.627	9.51
458.981	9.46
459.336	9.51
459.69	9.52
460.045	9.5
460.399	9.57
460.754	9.62
461.108	9.57
461.462	9.54
461.817	9.57
462.171	9.54
462.525	9.52
462.879	9.52
463.233	9.59
463.587	9.59
463.941	9.55
464.295	9.49
464.649	9.48
465.003	9.41
465.357	9.4
465.711	9.41
466.065	9.35
466.418	9.37
466.772	9.4
467.126	9.42
467.479	9.38
467.833	9.39
468.186	9.35
468.54	9.34
468.893	9.3
469.247	9.41
469.6	9.48
469.954	9.47
470.307	9.47
470.66	9.45
471.013	9.37
471.367	9.32
471.72	9.38
472.073	9.46
472.426	9.47
472.779	9.48
473.132	9.55
473.485	9.5
473.838	9.38
474.191	9.38
474.544	9.41
474.896	9.3
475.249	9.29
475.602	9.37
475.955	9.44
476.307	9.37
476.66	9.53
477.012	9.52
477.365	9.51
477.717	9.46
478.07	9.46
478.422	9.45
478.775	9.5
479.127	9.5
479.479	9.45
479.831	9.46
480.184	9.38
480.536	9.3
480.888	9.32
481.24	9.41
481.592	9.42
481.944	9.41
482.296	9.51
482.648	9.47
483	9.4
483.352	9.39
483.703	9.41
484.055	9.42
484.407	9.44
484.759	9.46
485.11	9.48
485.462	9.46
485.813	9.41
486.165	9.39
486.516	9.37
486.868	9.35
487.219	9.35
487.571	9.38
487.922	9.39
488.273	9.38
488.624	9.38
488.976	9.38
489.327	9.34
489.678	9.32
490.029	9.3
490.38	9.26
490.731	9.23
491.082	9.26
491.433	9.25
491.784	9.29
492.135	9.34
492.485	9.41
492.836	9.4
493.187	9.45
493.537	9.44
493.888	9.39
494.239	9.33
494.589	9.37
494.94	9.27
495.29	9.18
495.641	9.22
495.991	9.25
496.341	9.26
496.692	9.31
497.042	9.42
497.392	9.43
497.742	9.42
498.092	9.4
498.442	9.4
498.793	9.32
499.143	9.3
499.493	9.26
499.842	9.23
500.192	9.19
500.542	9.2
500.892	9.11
501.242	9.14
501.591	9.1
501.941	9.22
502.291	9.25
502.64	9.34
502.99	9.37
503.339	9.4
503.689	9.33
504.038	9.34
504.388	9.27
504.737	9.2
505.086	9.25
505.436	9.17
505.785	9.14
506.134	9.2
506.483	9.15
506.832	9.09
507.181	9.1
507.53	9.16
507.879	9.14
508.228	9.19
508.577	9.21
508.926	9.27
509.275	9.22
509.624	9.21
509.972	9.21
510.321	9.15
510.67	9.13
511.018	9.16
511.367	9.2
511.715	9.21
512.064	9.29
512.412	9.33
512.761	9.32
513.109	9.28
513.457	9.23
513.806	9.28
514.154	9.27
514.502	9.22
514.85	9.24
515.198	9.23
515.546	9.13
515.894	9.1
516.242	9.13
516.59	9.18
516.938	9.24
517.286	9.25
517.634	9.25
517.981	9.2
518.329	9.2
518.677	9.17
519.024	9.17
519.372	9.2
519.72	9.27
520.067	9.22
520.415	9.25
520.762	9.28
521.109	9.27
521.457	9.23
521.804	9.29
522.151	9.33
522.498	9.3
522.846	9.26
523.193	9.28
523.54	9.26
523.887	9.15
524.234	9.23
524.581	9.19
524.928	9.08
525.275	9.05
525.621	9.07
525.968	9
526.315	9
526.662	9.09
527.008	9.06
527.355	9.1
527.701	9.16
528.048	9.21
528.394	9.22
528.741	9.26
529.087	9.26
529.434	9.23
529.78	9.2
530.126	9.19
530.472	9.13
530.819	9.08
531.165	9.07
531.511	9.09
531.857	9.1
532.203	9.16
532.549	9.18
532.895	9.18
533.241	9.22
533.586	9.2
533.932	9.16
534.278	9.13
534.624	9.11
534.969	9.05
535.315	8.99
535.661	8.98
536.006	9.02
536.352	9.02
536.697	9.05
537.042	9.08
537.388	9.1
537.733	9.12
538.078	9.12
538.424	9.09
538.769	9.08
539.114	9.11
539.459	9.11
539.804	9.09
540.149	9.05
540.494	9.04
540.839	9.05
541.184	9.07
541.529	9.09
541.873	9.11
542.218	9.15
542.563	9.12
542.908	9.08
543.252	9.11
543.597	9.09
543.941	9.07
544.286	9.07
544.63	9.09
544.975	9
545.319	9.01
545.663	9.03
546.007	9.04
546.352	9.04
546.696	9.12
547.04	9.1
547.384	9.07
547.728	9.1
548.072	9.05
548.416	9.04
548.76	9.06
549.104	9.05
549.448	9.02
549.791	9.09
550.135	9.02
550.479	8.92
550.823	8.96
551.166	8.91
551.51	8.91
551.853	8.98
552.197	8.96
552.54	8.94
552.883	8.97
553.227	8.94
553.57	8.95
553.913	9.07
554.257	9.09
554.6	9.1
554.943	9.06
555.286	9.09
555.629	9.07
555.972	9.03
556.315	8.99
556.658	9.01
557.001	8.96
557.343	9.01
557.686	9.03
558.029	9.07
558.371	9.12
558.714	9
559.057	8.92
559.399	8.9
559.742	8.86
560.084	8.82
560.427	8.97
560.769	8.98
561.111	8.95
561.453	8.99
561.796	8.99
562.138	8.93
562.48	8.93
562.822	8.97
563.164	8.96
563.506	8.97
563.848	9.06
564.19	9.06
564.532	9.13
564.874	9.09
565.215	9.09
565.557	9.06
565.899	9.08
566.24	9.09
566.582	9.11
566.924	9.17
567.265	9.16
567.606	9.15
567.948	9.15
568.289	9.19
568.631	9.18
568.972	9.16
569.313	9.24
569.654	9.21
569.995	9.19
570.336	9.22
570.677	9.21
571.018	9.11
571.359	9.13
571.7	9.12
572.041	9.07
572.382	9.11
572.723	9.13
573.064	9.07
573.404	9.09
573.745	9.05
574.085	9.06
574.426	9.07
574.766	9.12
575.107	9.11
575.447	9.13
575.788	9.1
576.128	9.08
576.468	9.08
576.808	9.05
577.149	9.05
577.489	9.06
577.829	9.13
578.169	9.08
578.509	9
578.849	8.99
579.189	9
579.529	8.87
579.868	8.93
580.208	9.06
580.548	9.09
580.887	9.08
581.227	9.11
581.567	9.02
581.906	8.97
582.246	8.98
582.585	9.09
582.925	9.13
583.264	9.21
583.603	9.17
583.942	9.14
584.282	9.1
584.621	9.15
584.96	9.07
585.299	9.08
585.638	9.05
585.977	8.89
586.316	8.7
586.655	8.77
586.994	8.8
587.332	8.82
587.671	8.86
588.01	8.94
588.348	8.93
588.687	9.01
589.026	9.16
589.364	9.29
589.703	9.32
590.041	9.29
590.379	9.22
590.718	9.18
591.056	9.12
591.394	9.17
591.732	9.25
592.07	9.3
592.409	9.21
592.747	9.29
593.085	9.2
593.423	9.22
593.76	9.15
594.098	9.17
594.436	9.13
594.774	9.2
595.112	9.19
595.449	9.21
595.787	9.23
596.124	9.19
596.462	9.17
596.799	9.22
597.137	9.25
597.474	9.24
597.812	9.23
598.149	9.21
598.486	9.13
598.823	9.1
599.16	9.09
599.498	9.17
599.835	9.24
600.172	9.26
600.509	9.32
600.845	9.33
601.182	9.33
601.519	9.22
601.856	9.3
602.193	9.28
602.529	9.36
602.866	9.39
603.202	9.47
603.539	9.4
603.875	9.43
604.212	9.37
604.548	9.36
604.885	9.35
605.221	9.38
605.557	9.37
605.893	9.39
606.23	9.38
606.566	9.38
606.902	9.39
607.238	9.29
607.574	9.24
607.91	9.17
608.245	9.21
608.581	9.22
608.917	9.4
609.253	9.42
609.588	9.5
609.924	9.46
610.26	9.44
610.595	9.41
610.931	9.39
611.266	9.36
611.601	9.44
611.937	9.48
612.272	9.46
612.607	9.51
612.942	9.63
613.278	9.56
613.613	9.45
613.948	9.44
614.283	9.46
614.618	9.43
614.953	9.37
615.287	9.43
615.622	9.49
615.957	9.37
616.292	9.4
616.626	9.5
616.961	9.58
617.295	9.59
617.63	9.78
617.964	9.73
618.299	9.59
618.633	9.55
618.968	9.44
619.302	9.28
619.636	9.26
619.97	9.45
620.304	9.48
620.638	9.63
620.972	9.74
621.306	9.81
621.64	9.73
621.974	9.69
622.308	9.59
622.642	9.56
622.976	9.48
623.309	9.51
623.643	9.52
623.977	9.83
624.31	9.84
624.644	9.81
624.977	9.92
625.31	9.96
625.644	9.78
625.977	9.75
626.31	9.87
626.643	9.88
626.977	9.9
627.31	9.91
627.643	9.99
627.976	9.96
628.309	9.78
628.642	9.77
628.974	9.72
629.307	9.67
629.64	9.78
629.973	10.02
630.305	10.06
630.638	10.05
630.971	10.03
631.303	9.95
631.636	9.93
631.968	9.91
632.3	10.01
632.633	10.08
632.965	10.11
633.297	10.03
633.629	10.11
633.961	10.08
634.293	10.1
634.625	10.1
634.957	10.15
635.289	10.07
635.621	10.22
635.953	10.19
636.285	10.14
636.617	10.25
636.948	10.31
637.28	10.16
637.611	10.23
637.943	10.26
638.274	10.09
638.606	10
638.937	10.04
639.269	10.01
639.6	10.02
639.931	10.14
640.262	10.15
640.593	10.03
640.924	9.9
641.255	9.95
641.586	9.75
641.917	9.84
642.248	9.88
642.579	10.21
642.91	10.08
643.24	10.29
643.571	10.35
643.902	10.52
644.232	10.42
644.563	10.66
644.893	10.58
645.224	10.53
645.554	10.6
645.884	10.45
646.215	10.23
646.545	10.3
646.875	10.53
647.205	10.36
647.535	10.43
647.865	10.57
648.195	10.49
648.525	10.2
648.855	10.32
649.185	10.32
649.515	10.22
649.844	10.35
650.174	10.57
650.504	10.4
650.833	10.33
651.163	10.41
651.492	10.32
651.822	10.18
652.151	10.28
652.48	10.34
652.81	10.36
653.139	10.48
653.468	10.52
653.797	10.62
654.126	10.63
654.455	10.53
654.784	10.31
655.113	10.09
655.442	9.93
655.771	9.91
656.099	9.98
656.428	10.13
656.757	10.12
657.085	10.29
657.414	10.25
657.742	10.27
658.071	10.24
658.399	10.51
658.728	10.52
659.056	10.49
659.384	10.45
659.712	10.5
660.04	10.5
660.369	10.37
660.697	10.52
661.025	10.49
661.353	10.36
661.68	10.24
662.008	10.2
662.336	10.07
662.664	10.04
662.991	10.11
663.319	10.08
663.647	10.16
663.974	10.23
664.302	10.27
664.629	10.32
664.956	10.32
665.284	10.36
665.611	10.43
665.938	10.45
666.265	10.36
666.593	10.39
666.92	10.38
667.247	10.34
667.574	10.33
667.9	10.47
