Data from Cp-i1_Reflection_15-34-21-423.txt Node
Date: Tue Aug 16 15:34:21 CEST 2022
User: IDIV
Spectrometer: FLMS14958
Trigger mode: 0
Integration Time (sec): 1.000000E-1
Scans to average: 10
Electric dark correction enabled: true
Nonlinearity correction enabled: true
Boxcar width: 2
XAxis mode: Wavelengths
Number of Pixels in Spectrum: 2048
>>>>>Begin Spectral Data<<<<<
179.491	119.54
179.869	142.1
180.247	107.04
180.625	79.67
181.003	45.95
181.381	-93.51
181.759	-179.02
182.136	-41.47
182.514	22.72
182.892	66.04
183.27	92.77
183.647	189.21
184.025	648.54
184.403	-28.14
184.78	45.45
185.158	-75.9
185.536	17.05
185.913	39.7
186.291	20.93
186.668	63.24
187.046	101.45
187.423	116.41
187.801	27.44
188.178	15.71
188.556	3.85
188.933	15.01
189.31	9.54
189.688	12.78
190.065	18.34
190.442	22.33
190.82	27.18
191.197	17.78
191.574	18.21
191.951	14.15
192.329	7.02
192.706	-21.18
193.083	-19.89
193.46	-23.26
193.837	-33.03
194.214	-26.85
194.591	-28.32
194.968	-17.74
195.345	-19.94
195.722	-30.51
196.099	-37.47
196.476	-25.08
196.853	-22.61
197.23	-20.15
197.607	-4.29
197.984	4.83
198.36	17.18
198.737	22.72
199.114	24.67
199.491	14.17
199.867	18.72
200.244	22.32
200.621	24.66
200.997	29.12
201.374	44.8
201.75	39.73
202.127	31.72
202.504	29.44
202.88	17.2
203.257	7.99
203.633	16.13
204.01	9.44
204.386	4.88
204.762	13.2
205.139	11.47
205.515	5.03
205.891	12.54
206.268	0.56
206.644	11.55
207.02	10.89
207.396	9.78
207.773	0.37
208.149	13.91
208.525	5.07
208.901	4.37
209.277	4.28
209.653	2.1
210.029	2.65
210.405	1.07
210.781	-4.61
211.157	-9.87
211.533	-2.98
211.909	-8.88
212.285	-7.43
212.661	-1.21
213.037	1.78
213.413	3.82
213.789	9.43
214.164	14.29
214.54	16.61
214.916	17.29
215.292	7.27
215.667	4.16
216.043	3.69
216.419	5.59
216.794	6.96
217.17	9.24
217.545	6.06
217.921	4.91
218.296	-0.47
218.672	3.1
219.047	5.16
219.423	16.11
219.798	20.51
220.174	17.29
220.549	13.11
220.924	22.9
221.3	11.17
221.675	-4.09
222.05	2.7
222.425	-0.75
222.801	-7.04
223.176	-3.47
223.551	8.82
223.926	4.39
224.301	5.73
224.676	4.13
225.051	3.95
225.426	0.38
225.801	4.31
226.176	2.62
226.551	5.35
226.926	4.37
227.301	4.77
227.676	1.59
228.051	4.46
228.426	1.74
228.801	0.77
229.175	-0.15
229.55	0.92
229.925	0.02
230.3	0.57
230.674	0.76
231.049	1.58
231.424	-0.09
231.798	0.05
232.173	0.23
232.547	0.24
232.922	-1.21
233.296	0.15
233.671	0.02
234.045	-0.41
234.42	0.68
234.794	1.24
235.168	2.34
235.543	2.05
235.917	1.46
236.291	1.7
236.666	2.9
237.04	1.66
237.414	1.61
237.788	2.67
238.162	0.91
238.537	-0.36
238.911	-0.37
239.285	-0.15
239.659	-0.62
240.033	0.84
240.407	0.38
240.781	0.8
241.155	0.74
241.529	1.16
241.903	0.53
242.277	0.52
242.65	-0.06
243.024	0.08
243.398	-0.18
243.772	-0.13
244.146	0.25
244.519	0.68
244.893	0.63
245.267	0.6
245.64	0.43
246.014	0.04
246.387	-0.17
246.761	-0.12
247.135	0.08
247.508	0.19
247.882	0.22
248.255	0.3
248.628	0.2
249.002	0.16
249.375	0.25
249.749	0.12
250.122	-0.08
250.495	0.09
250.868	-0.08
251.242	-0.15
251.615	0.12
251.988	0.45
252.361	0.37
252.734	0.64
253.107	0.78
253.481	0.64
253.854	0.52
254.227	0.99
254.6	1.07
254.973	1.06
255.346	1.21
255.718	1.22
256.091	0.76
256.464	-0.36
256.837	-0.38
257.21	-0.26
257.583	-0.09
257.955	-0.14
258.328	0.64
258.701	0.3
259.074	0.33
259.446	0.07
259.819	0.09
260.191	-0.06
260.564	-0.04
260.936	0.07
261.309	0.18
261.681	0.22
262.054	0.48
262.426	0.66
262.799	0.39
263.171	0.53
263.543	0.63
263.916	0.56
264.288	0.48
264.66	0.43
265.033	0.15
265.405	0.27
265.777	0.28
266.149	0.53
266.521	0.48
266.893	0.75
267.265	0.68
267.637	0.69
268.009	0.36
268.381	0.55
268.753	0.39
269.125	0.37
269.497	0.04
269.869	0.26
270.241	0.02
270.613	-0.25
270.985	-0.4
271.356	-0.09
271.728	0.01
272.1	0.15
272.471	0.32
272.843	0.32
273.215	0.25
273.586	0.14
273.958	0.08
274.329	0.18
274.701	0.12
275.072	0.02
275.444	0.01
275.815	0.14
276.187	0.23
276.558	0.47
276.929	0.59
277.301	0.61
277.672	0.5
278.043	0.29
278.415	0.31
278.786	0.4
279.157	0.46
279.528	0.41
279.899	0.62
280.27	0.62
280.641	0.58
281.012	0.44
281.383	0.41
281.754	0.42
282.125	0.33
282.496	0.11
282.867	0.05
283.238	0.18
283.609	0.22
283.98	0.21
284.35	0.44
284.721	0.52
285.092	0.39
285.462	0.32
285.833	0.3
286.204	0.2
286.574	0.31
286.945	0.34
287.315	0.32
287.686	0.11
288.056	0.16
288.427	-0.01
288.797	-0.06
289.168	-0.34
289.538	-0.03
289.908	0.07
290.279	0.18
290.649	0.21
291.019	0.27
291.39	0.23
291.76	0.07
292.13	-0.01
292.5	0.22
292.87	0.27
293.24	0.35
293.61	0.45
293.98	0.54
294.35	0.23
294.72	0.31
295.09	0.18
295.46	0.21
295.83	0.15
296.2	0.05
296.57	-0.02
296.939	-0.02
297.309	0.17
297.679	0.12
298.049	0.22
298.418	0.32
298.788	0.49
299.158	0.4
299.527	0.5
299.897	0.47
300.266	0.51
300.636	0.32
301.005	0.09
301.375	0
301.744	0.2
302.113	0.1
302.483	0.27
302.852	0.28
303.221	0.24
303.591	0.23
303.96	0.16
304.329	0.07
304.698	0.22
305.067	0.49
305.436	0.36
305.806	0.5
306.175	0.64
306.544	0.4
306.913	0.14
307.282	0.19
307.65	0.2
308.019	0.04
308.388	0.24
308.757	0.34
309.126	0.41
309.495	0.22
309.863	0.2
310.232	0.17
310.601	-0.02
310.969	-0.05
311.338	0.05
311.707	0.05
312.075	-0.01
312.444	0.23
312.812	0.13
313.181	0.26
313.549	0.41
313.918	0.54
314.286	0.31
314.654	0.26
315.023	0.15
315.391	0.02
315.759	0.13
316.127	0.39
316.496	0.6
316.864	0.72
317.232	0.94
317.6	0.83
317.968	0.78
318.336	0.73
318.704	0.71
319.072	0.65
319.44	0.57
319.808	0.5
320.176	0.3
320.544	0.35
320.912	0.16
321.28	0.22
321.647	0.13
322.015	0.33
322.383	0.25
322.75	0.27
323.118	0.2
323.486	0.36
323.853	0.28
324.221	0.28
324.588	0.15
324.956	0.34
325.323	0.17
325.691	0.23
326.058	-0.01
326.426	0.13
326.793	0.03
327.16	0.24
327.528	0.22
327.895	0.51
328.262	0.47
328.629	0.28
328.996	0.38
329.363	0.43
329.731	0.18
330.098	0.24
330.465	0.44
330.832	-0.06
331.199	-0.06
331.566	0.09
331.932	0.2
332.299	0.08
332.666	0.32
333.033	0.07
333.4	-0.07
333.766	-0.36
334.133	-0.17
334.5	-0.17
334.867	-0.03
335.233	-0.24
335.6	-0.11
335.966	-0.02
336.333	-0.08
336.699	0.06
337.066	0.32
337.432	0.35
337.799	0.14
338.165	0.27
338.531	0.33
338.898	0.16
339.264	0.14
339.63	0.09
339.996	0.08
340.363	0.15
340.729	0.26
341.095	0.21
341.461	0.29
341.827	0.32
342.193	0.22
342.559	0.34
342.925	0.4
343.291	0.4
343.657	0.33
344.023	0.14
344.388	0.14
344.754	0.29
345.12	0.39
345.486	0.26
345.851	0.41
346.217	0.44
346.583	0.47
346.948	0.4
347.314	0.51
347.679	0.44
348.045	0.36
348.41	-0.02
348.776	-0.03
349.141	-0.02
349.507	-0.05
349.872	-0.05
350.237	-0.17
350.603	-0.05
350.968	0
351.333	0.32
351.698	0.45
352.063	0.77
352.428	0.68
352.794	0.57
353.159	0.31
353.524	0.3
353.889	0.26
354.254	0.2
354.618	0.33
354.983	0.24
355.348	0.08
355.713	0.12
356.078	0.15
356.443	0.12
356.807	0.28
357.172	0.4
357.537	0.28
357.901	0.28
358.266	0.24
358.63	0.27
358.995	0.23
359.359	0.45
359.724	0.5
360.088	0.57
360.453	0.54
360.817	0.41
361.181	0.3
361.546	0.24
361.91	0.21
362.274	0.15
362.638	0.39
363.003	0.4
363.367	0.38
363.731	0.57
364.095	0.48
364.459	0.27
364.823	0.38
365.187	0.41
365.551	0.2
365.915	0.19
366.279	0.16
366.642	0.15
367.006	0.22
367.37	0.15
367.734	0.13
368.097	0.26
368.461	0.24
368.825	0.28
369.188	0.46
369.552	0.73
369.915	0.72
370.279	0.69
370.642	0.6
371.006	0.46
371.369	0.19
371.732	0.08
372.096	-0.06
372.459	-0.02
372.822	-0.08
373.186	-0.01
373.549	-0.08
373.912	0.05
374.275	0.12
374.638	0.25
375.001	0.33
375.364	0.51
375.727	0.53
376.09	0.4
376.453	0.35
376.816	0.18
377.179	0.19
377.542	0.27
377.904	0.25
378.267	0.41
378.63	0.54
378.993	0.75
379.355	0.72
379.718	0.77
380.08	0.65
380.443	0.6
380.806	0.34
381.168	0.15
381.53	0.11
381.893	0.08
382.255	0.22
382.618	0.37
382.98	0.48
383.342	0.42
383.704	0.43
384.067	0.34
384.429	0.15
384.791	0.24
385.153	0.24
385.515	0.36
385.877	0.46
386.239	0.52
386.601	0.38
386.963	0.6
387.325	0.44
387.687	0.3
388.049	0.29
388.41	0.21
388.772	-0.02
389.134	0.02
389.496	-0.05
389.857	-0.1
390.219	0.07
390.58	0.18
390.942	0.11
391.303	0.32
391.665	0.35
392.026	0.34
392.388	0.4
392.749	0.43
393.111	0.4
393.472	0.49
393.833	0.35
394.194	0.23
394.556	0.2
394.917	0.22
395.278	0.13
395.639	0.2
396	0.16
396.361	0.21
396.722	0.12
397.083	0.23
397.444	0.33
397.805	0.4
398.166	0.34
398.526	0.31
398.887	0.28
399.248	0.18
399.609	0.27
399.969	0.31
400.33	0.41
400.691	0.31
401.051	0.44
401.412	0.41
401.772	0.39
402.133	0.34
402.493	0.33
402.853	0.28
403.214	0.18
403.574	0.28
403.934	0.23
404.295	0.21
404.655	0.21
405.015	0.27
405.375	0.15
405.735	0.18
406.095	0.16
406.455	0.15
406.815	0.03
407.175	0.19
407.535	0.19
407.895	0.26
408.255	0.27
408.615	0.37
408.975	0.27
409.334	0.15
409.694	0.08
410.054	0.06
410.413	0.04
410.773	0.04
411.133	0.23
411.492	0.27
411.852	0.3
412.211	0.39
412.571	0.45
412.93	0.4
413.289	0.45
413.649	0.41
414.008	0.32
414.367	0.31
414.726	0.26
415.086	0.24
415.445	0.2
415.804	0.11
416.163	0.11
416.522	0.15
416.881	0.12
417.24	0.18
417.599	0.22
417.958	0.25
418.316	0.23
418.675	0.27
419.034	0.27
419.393	0.26
419.751	0.25
420.11	0.3
420.469	0.29
420.827	0.27
421.186	0.32
421.544	0.3
421.903	0.28
422.261	0.25
422.62	0.22
422.978	0.2
423.336	0.22
423.695	0.18
424.053	0.21
424.411	0.26
424.769	0.26
425.128	0.27
425.486	0.31
425.844	0.33
426.202	0.33
426.56	0.37
426.918	0.31
427.276	0.24
427.634	0.18
427.991	0.23
428.349	0.27
428.707	0.31
429.065	0.34
429.423	0.42
429.78	0.37
430.138	0.28
430.495	0.26
430.853	0.28
431.211	0.2
431.568	0.16
431.925	0.16
432.283	0.26
432.64	0.27
432.998	0.27
433.355	0.26
433.712	0.26
434.069	0.19
434.427	0.23
434.784	0.24
435.141	0.3
435.498	0.32
435.855	0.31
436.212	0.27
436.569	0.33
436.926	0.29
437.283	0.25
437.64	0.27
437.996	0.28
438.353	0.26
438.71	0.22
439.067	0.26
439.423	0.27
439.78	0.2
440.137	0.17
440.493	0.16
440.85	0.18
441.206	0.15
441.563	0.18
441.919	0.2
442.275	0.22
442.632	0.18
442.988	0.19
443.344	0.2
443.7	0.18
444.057	0.22
444.413	0.26
444.769	0.31
445.125	0.3
445.481	0.31
445.837	0.26
446.193	0.21
446.549	0.17
446.905	0.19
447.26	0.17
447.616	0.21
447.972	0.27
448.328	0.26
448.683	0.28
449.039	0.31
449.395	0.3
449.75	0.31
450.106	0.35
450.461	0.34
450.817	0.28
451.172	0.22
451.527	0.17
451.883	0.16
452.238	0.18
452.593	0.29
452.949	0.35
453.304	0.39
453.659	0.41
454.014	0.38
454.369	0.3
454.724	0.25
455.079	0.21
455.434	0.16
455.789	0.12
456.144	0.18
456.499	0.22
456.853	0.21
457.208	0.23
457.563	0.26
457.918	0.26
458.272	0.23
458.627	0.22
458.981	0.26
459.336	0.26
459.69	0.19
460.045	0.2
460.399	0.22
460.754	0.19
461.108	0.2
461.462	0.21
461.817	0.19
462.171	0.17
462.525	0.25
462.879	0.29
463.233	0.33
463.587	0.35
463.941	0.35
464.295	0.35
464.649	0.28
465.003	0.24
465.357	0.22
465.711	0.19
466.065	0.1
466.418	0.09
466.772	0.11
467.126	0.09
467.479	0.17
467.833	0.21
468.186	0.27
468.54	0.32
468.893	0.38
469.247	0.35
469.6	0.37
469.954	0.35
470.307	0.32
470.66	0.37
471.013	0.35
471.367	0.36
471.72	0.31
472.073	0.33
472.426	0.27
472.779	0.27
473.132	0.28
473.485	0.27
473.838	0.21
474.191	0.24
474.544	0.26
474.896	0.23
475.249	0.29
475.602	0.36
475.955	0.4
476.307	0.41
476.66	0.4
477.012	0.38
477.365	0.35
477.717	0.29
478.07	0.29
478.422	0.32
478.775	0.27
479.127	0.27
479.479	0.26
479.831	0.27
480.184	0.21
480.536	0.24
480.888	0.25
481.24	0.24
481.592	0.23
481.944	0.24
482.296	0.25
482.648	0.22
483	0.24
483.352	0.21
483.703	0.21
484.055	0.2
484.407	0.21
484.759	0.21
485.11	0.21
485.462	0.21
485.813	0.22
486.165	0.19
486.516	0.2
486.868	0.2
487.219	0.18
487.571	0.18
487.922	0.2
488.273	0.22
488.624	0.23
488.976	0.25
489.327	0.25
489.678	0.24
490.029	0.21
490.38	0.26
490.731	0.26
491.082	0.27
491.433	0.28
491.784	0.29
492.135	0.26
492.485	0.26
492.836	0.25
493.187	0.24
493.537	0.22
493.888	0.22
494.239	0.24
494.589	0.25
494.94	0.26
495.29	0.29
495.641	0.31
495.991	0.28
496.341	0.3
496.692	0.31
497.042	0.26
497.392	0.23
497.742	0.21
498.092	0.23
498.442	0.24
498.793	0.24
499.143	0.25
499.493	0.22
499.842	0.16
500.192	0.15
500.542	0.19
500.892	0.21
501.242	0.27
501.591	0.27
501.941	0.24
502.291	0.25
502.64	0.24
502.99	0.21
503.339	0.26
503.689	0.31
504.038	0.28
504.388	0.27
504.737	0.24
505.086	0.23
505.436	0.17
505.785	0.15
506.134	0.11
506.483	0.15
506.832	0.1
507.181	0.14
507.53	0.15
507.879	0.17
508.228	0.15
508.577	0.22
508.926	0.25
509.275	0.21
509.624	0.28
509.972	0.28
510.321	0.26
510.67	0.23
511.018	0.27
511.367	0.24
511.715	0.29
512.064	0.27
512.412	0.28
512.761	0.23
513.109	0.23
513.457	0.16
513.806	0.13
514.154	0.13
514.502	0.15
514.85	0.13
515.198	0.19
515.546	0.22
515.894	0.2
516.242	0.26
516.59	0.26
516.938	0.26
517.286	0.3
517.634	0.31
517.981	0.23
518.329	0.27
518.677	0.22
519.024	0.21
519.372	0.2
519.72	0.26
520.067	0.2
520.415	0.2
520.762	0.15
521.109	0.17
521.457	0.14
521.804	0.2
522.151	0.27
522.498	0.27
522.846	0.27
523.193	0.25
523.54	0.22
523.887	0.14
524.234	0.19
524.581	0.19
524.928	0.2
525.275	0.19
525.621	0.23
525.968	0.18
526.315	0.16
526.662	0.2
527.008	0.2
527.355	0.22
527.701	0.24
528.048	0.23
528.394	0.22
528.741	0.22
529.087	0.22
529.434	0.22
529.78	0.22
530.126	0.2
530.472	0.22
530.819	0.19
531.165	0.21
531.511	0.22
531.857	0.25
532.203	0.2
532.549	0.23
532.895	0.21
533.241	0.22
533.586	0.22
533.932	0.25
534.278	0.24
534.624	0.26
534.969	0.24
535.315	0.22
535.661	0.21
536.006	0.19
536.352	0.17
536.697	0.22
537.042	0.23
537.388	0.21
537.733	0.21
538.078	0.22
538.424	0.18
538.769	0.21
539.114	0.26
539.459	0.26
539.804	0.26
540.149	0.27
540.494	0.22
540.839	0.19
541.184	0.22
541.529	0.21
541.873	0.17
542.218	0.19
542.563	0.18
542.908	0.15
543.252	0.16
543.597	0.16
543.941	0.17
544.286	0.2
544.63	0.23
544.975	0.24
545.319	0.29
545.663	0.25
546.007	0.22
546.352	0.19
546.696	0.21
547.04	0.2
547.384	0.22
547.728	0.21
548.072	0.24
548.416	0.23
548.76	0.27
549.104	0.25
549.448	0.27
549.791	0.28
550.135	0.28
550.479	0.24
550.823	0.22
551.166	0.21
551.51	0.16
551.853	0.11
552.197	0.04
552.54	0.12
552.883	0.17
553.227	0.22
553.57	0.19
553.913	0.28
554.257	0.27
554.6	0.25
554.943	0.23
555.286	0.27
555.629	0.26
555.972	0.18
556.315	0.14
556.658	0.13
557.001	0.07
557.343	0.04
557.686	0.08
558.029	0.07
558.371	0.07
558.714	0.18
559.057	0.27
559.399	0.2
559.742	0.21
560.084	0.23
560.427	0.22
560.769	0.09
561.111	0.14
561.453	0.11
561.796	0.02
562.138	0.04
562.48	0.08
562.822	0.1
563.164	0.19
563.506	0.23
563.848	0.27
564.19	0.3
564.532	0.32
564.874	0.31
565.215	0.29
565.557	0.23
565.899	0.21
566.24	0.19
566.582	0.16
566.924	0.23
567.265	0.27
567.606	0.24
567.948	0.24
568.289	0.21
568.631	0.2
568.972	0.12
569.313	0.18
569.654	0.21
569.995	0.24
570.336	0.26
570.677	0.31
571.018	0.32
571.359	0.29
571.7	0.29
572.041	0.29
572.382	0.31
572.723	0.32
573.064	0.34
573.404	0.31
573.745	0.28
574.085	0.19
574.426	0.13
574.766	0.16
575.107	0.19
575.447	0.21
575.788	0.27
576.128	0.27
576.468	0.31
576.808	0.32
577.149	0.25
577.489	0.19
577.829	0.25
578.169	0.12
578.509	0.09
578.849	0.15
579.189	0.19
579.529	0.24
579.868	0.3
580.208	0.33
580.548	0.27
580.887	0.32
581.227	0.19
581.567	0.19
581.906	0.29
582.246	0.43
582.585	0.38
582.925	0.46
583.264	0.4
583.603	0.28
583.942	0.18
584.282	0.19
584.621	0.16
584.96	0.12
585.299	0.1
585.638	0.21
585.977	0.16
586.316	0.22
586.655	0.39
586.994	0.39
587.332	0.29
587.671	0.42
588.01	0.29
588.348	0.2
588.687	0.25
589.026	0.28
589.364	0.19
589.703	0.26
590.041	0.25
590.379	0.2
590.718	0.23
591.056	0.23
591.394	0.25
591.732	0.33
592.07	0.38
592.409	0.38
592.747	0.43
593.085	0.37
593.423	0.36
593.76	0.42
594.098	0.38
594.436	0.45
594.774	0.49
595.112	0.5
595.449	0.43
595.787	0.44
596.124	0.37
596.462	0.36
596.799	0.32
597.137	0.25
597.474	0.27
597.812	0.2
598.149	0.17
598.486	0.16
598.823	0.24
599.16	0.19
599.498	0.28
599.835	0.3
600.172	0.39
600.509	0.36
600.845	0.36
601.182	0.3
601.519	0.4
601.856	0.3
602.193	0.36
602.529	0.49
602.866	0.53
603.202	0.55
603.539	0.6
603.875	0.57
604.212	0.55
604.548	0.55
604.885	0.52
605.221	0.53
605.557	0.63
605.893	0.61
606.23	0.61
606.566	0.63
606.902	0.62
607.238	0.58
607.574	0.59
607.91	0.55
608.245	0.51
608.581	0.58
608.917	0.52
609.253	0.54
609.588	0.54
609.924	0.6
610.26	0.57
610.595	0.56
610.931	0.49
611.266	0.57
611.601	0.53
611.937	0.52
612.272	0.14
612.607	0.16
612.942	0.19
613.278	0.2
613.613	0.25
613.948	0.7
614.283	0.76
614.618	0.63
614.953	0.71
615.287	0.65
615.622	0.57
615.957	0.55
616.292	0.67
616.626	0.69
616.961	0.81
617.295	1.03
617.63	1.12
617.964	1.2
618.299	1.12
618.633	1.09
618.968	0.99
619.302	1.01
619.636	1.06
619.97	1.09
620.304	1.06
620.638	1.14
620.972	1.14
621.306	1.05
621.64	1.15
621.974	1.15
622.308	1.18
622.642	1.2
622.976	1.16
623.309	1.09
623.643	1.13
623.977	1.14
624.31	1.1
624.644	1.24
624.977	1.33
625.31	1.37
625.644	1.39
625.977	1.45
626.31	1.44
626.643	1.36
626.977	1.39
627.31	1.25
627.643	1.27
627.976	1.3
628.309	1.3
628.642	1.28
628.974	1.48
629.307	1.5
629.64	1.45
629.973	1.48
630.305	1.48
630.638	1.44
630.971	1.42
631.303	1.47
631.636	1.5
631.968	1.55
632.3	1.55
632.633	1.61
632.965	1.58
633.297	1.52
633.629	1.48
633.961	1.34
634.293	1.37
634.625	1.46
634.957	1.52
635.289	1.68
635.621	1.92
635.953	2
636.285	2.03
636.617	2.1
636.948	2.13
637.28	2.09
637.611	2.02
637.943	2
638.274	2.04
638.606	2.04
638.937	2.07
639.269	2.16
639.6	2.23
639.931	2.22
640.262	2.22
640.593	2.2
640.924	2.12
641.255	2.15
641.586	2.09
641.917	2.12
642.248	2.24
642.579	2.27
642.91	2.26
643.24	2.31
643.571	2.32
643.902	2.35
644.232	2.48
644.563	2.55
644.893	2.73
645.224	2.68
645.554	2.53
645.884	2.5
646.215	2.44
646.545	2.35
646.875	2.54
647.205	2.86
647.535	2.83
647.865	2.95
648.195	3.05
648.525	2.95
648.855	2.87
649.185	2.92
649.515	2.89
649.844	2.94
650.174	3.24
650.504	3.21
650.833	3.38
651.163	3.5
651.492	3.59
651.822	3.43
652.151	3.39
652.48	3.36
652.81	3.38
653.139	3.38
653.468	3.41
653.797	3.46
654.126	3.49
654.455	3.58
654.784	3.55
655.113	3.65
655.442	3.85
655.771	3.91
656.099	3.85
656.428	3.94
656.757	3.78
657.085	3.76
657.414	3.81
657.742	3.84
658.071	3.94
658.399	4.22
658.728	4.34
659.056	4.4
659.384	4.41
659.712	4.43
660.04	4.28
660.369	4.32
660.697	4.27
661.025	4.38
661.353	4.47
661.68	4.69
662.008	4.65
662.336	4.76
662.664	4.79
662.991	4.91
663.319	4.92
663.647	5
663.974	5.13
664.302	5.28
664.629	5.29
664.956	5.3
665.284	5.35
665.611	5.3
665.938	5.15
666.265	5.27
666.593	5.33
666.92	5.54
667.247	5.6
667.574	5.81
667.9	5.85
668.227	5.97
668.554	5.77
668.881	5.92
669.208	6.1
669.534	6.13
669.861	6.28
670.187	6.29
670.514	6.48
670.84	6.46
671.167	6.3
671.493	6.23
671.819	6.54
672.146	6.63
672.472	6.72
672.798	6.89
673.124	6.96
673.45	6.97
673.776	6.72
674.102	6.77
674.428	6.83
674.754	6.86
675.079	6.95
675.405	7.13
675.731	7.05
676.056	7.02
676.382	6.98
676.707	6.98
677.033	7.15
677.358	7.24
677.684	7.46
678.009	7.71
678.334	7.69
678.659	7.68
678.985	7.77
679.31	7.92
679.635	8.03
679.96	8.16
