Data from Cp-i2_Reflection_15-35-55-410.txt Node
Date: Tue Aug 16 15:35:55 CEST 2022
User: IDIV
Spectrometer: FLMS14958
Trigger mode: 0
Integration Time (sec): 1.000000E-1
Scans to average: 10
Electric dark correction enabled: true
Nonlinearity correction enabled: true
Boxcar width: 2
XAxis mode: Wavelengths
Number of Pixels in Spectrum: 2048
>>>>>Begin Spectral Data<<<<<
179.491	143.56
179.869	94.06
180.247	78.47
180.625	51.18
181.003	20.6
181.381	-13.42
181.759	55.08
182.136	95.92
182.514	83.5
182.892	92.26
183.27	33.64
183.647	95.2
184.025	-48.36
184.403	-2756.78
184.78	265.88
185.158	65.74
185.536	113.86
185.913	64.86
186.291	-8.16
186.668	-98.05
187.046	-4.26
187.423	55.71
187.801	23.15
188.178	-0.16
188.556	19.81
188.933	1.67
189.31	-24.81
189.688	-13.68
190.065	-7.26
190.442	-17.08
190.82	-17.35
191.197	-12.73
191.574	-27.16
191.951	-36.65
192.329	-24.89
192.706	-18.63
193.083	-16.74
193.46	-22.73
193.837	-10.37
194.214	-3.22
194.591	-20.5
194.968	-10.52
195.345	0.66
195.722	-8.16
196.099	-18.67
196.476	-9.62
196.853	-12.94
197.23	-19.49
197.607	-12.91
197.984	-9.6
198.36	2.05
198.737	5.3
199.114	10.36
199.491	-5.88
199.867	-2.6
200.244	11.8
200.621	13.66
200.997	13.46
201.374	21.74
201.75	25.76
202.127	12.23
202.504	11.92
202.88	3.22
203.257	-1.29
203.633	-0.24
204.01	1.75
204.386	-0.25
204.762	9.59
205.139	15.21
205.515	18.65
205.891	19.27
206.268	11.35
206.644	7.55
207.02	6.47
207.396	-0.68
207.773	4.45
208.149	15.19
208.525	12.96
208.901	14.27
209.277	11.81
209.653	2.79
210.029	-4.07
210.405	4.59
210.781	-4.12
211.157	-10.25
211.533	-10.09
211.909	-9.28
212.285	-14.09
212.661	-8.17
213.037	-1.47
213.413	-1.15
213.789	0.16
214.164	0.09
214.54	2.28
214.916	-4.41
215.292	-2.08
215.667	3.58
216.043	3.74
216.419	3.75
216.794	11.55
217.17	5.7
217.545	0.87
217.921	-1.42
218.296	-10.53
218.672	-14.09
219.047	-13.28
219.423	-8.59
219.798	-3.86
220.174	3.55
220.549	-3.88
220.924	-0.42
221.3	-12.35
221.675	-20.3
222.05	-24.4
222.425	-24.07
222.801	-20.72
223.176	-11.32
223.551	-2.12
223.926	-3.14
224.301	-0.94
224.676	2.78
225.051	3.46
225.426	1.11
225.801	1.06
226.176	1.78
226.551	0.83
226.926	-0.05
227.301	-1.65
227.676	0.56
228.051	3.48
228.426	2.2
228.801	0.03
229.175	-0.39
229.55	-0.26
229.925	-0.65
230.3	-0.62
230.674	0.19
231.049	1.67
231.424	1.23
231.798	0.72
232.173	0.57
232.547	-0.01
232.922	-2.16
233.296	-2.19
233.671	-2.64
234.045	-1.66
234.42	-1
234.794	0.54
235.168	2.07
235.543	2.48
235.917	2.31
236.291	2.14
236.666	2.2
237.04	1.16
237.414	-0.01
237.788	0.3
238.162	0.49
238.537	-0.6
238.911	-1.62
239.285	-0.97
239.659	-0.83
240.033	-0.1
240.407	-0.09
240.781	1.27
241.155	1.81
241.529	1.03
241.903	0.2
242.277	0.19
242.65	-0.08
243.024	-0.11
243.398	-0.05
243.772	0.06
244.146	0.53
244.519	0.71
244.893	0.56
245.267	0.62
245.64	0.62
246.014	-0.01
246.387	-0.27
246.761	-0.11
247.135	0.13
247.508	0.28
247.882	0.39
248.255	0.48
248.628	0.4
249.002	0.26
249.375	0.13
249.749	0.01
250.122	-0.06
250.495	0.13
250.868	0.46
251.242	0.8
251.615	0.75
251.988	0.68
252.361	0.45
252.734	0.36
253.107	0.35
253.481	0.33
253.854	0.35
254.227	0.97
254.6	1.07
254.973	0.83
255.346	0.77
255.718	0.6
256.091	-0.07
256.464	-0.89
256.837	-0.47
257.21	-0.16
257.583	-0.05
257.955	-0.11
258.328	0.47
258.701	-0
259.074	-0.02
259.446	0.05
259.819	0.07
260.191	-0.08
260.564	-0.05
260.936	0.01
261.309	0.03
261.681	0.03
262.054	0.27
262.426	0.47
262.799	0.46
263.171	0.25
263.543	0.24
263.916	0.04
264.288	0.19
264.66	-0.07
265.033	0.16
265.405	0.28
265.777	0.44
266.149	0.39
266.521	0.33
266.893	0.5
267.265	0.5
267.637	0.29
268.009	0.13
268.381	0.31
268.753	0.1
269.125	0.15
269.497	-0.01
269.869	0.14
270.241	0.02
270.613	-0.04
270.985	-0.24
271.356	0.02
271.728	0.12
272.1	0.11
272.471	0.18
272.843	0.27
273.215	0.16
273.586	0.13
273.958	0.25
274.329	0.34
274.701	0.11
275.072	-0.04
275.444	-0.09
275.815	-0.07
276.187	0.03
276.558	0.34
276.929	0.52
277.301	0.57
277.672	0.58
278.043	0.07
278.415	0.08
278.786	0.15
279.157	-0.12
279.528	-0.32
279.899	0.19
280.27	0.09
280.641	0.19
281.012	0.14
281.383	-0.03
281.754	-0.26
282.125	-0.28
282.496	-0.41
282.867	-0.4
283.238	-0.16
283.609	0.07
283.98	0.37
284.35	0.6
284.721	0.58
285.092	0.52
285.462	0.45
285.833	0.24
286.204	-0.01
286.574	0.16
286.945	0.15
287.315	0.02
287.686	-0.23
288.056	0.03
288.427	-0.02
288.797	-0.19
289.168	-0.05
289.538	0.35
289.908	0.1
290.279	0.03
290.649	0.31
291.019	0.12
291.39	-0.03
291.76	0.04
292.13	0.28
292.5	0.29
292.87	0.42
293.24	0.26
293.61	0.34
293.98	0.01
294.35	-0.13
294.72	-0.09
295.09	-0.06
295.46	-0.19
295.83	-0.19
296.2	-0.26
296.57	-0.37
296.939	-0.36
297.309	-0.26
297.679	-0.2
298.049	-0.15
298.418	0
298.788	0.25
299.158	0.38
299.527	0.44
299.897	0.52
300.266	0.48
300.636	0.35
301.005	0.09
301.375	0.05
301.744	0.03
302.113	0.12
302.483	-0.05
302.852	0.1
303.221	0.03
303.591	0.11
303.96	-0.1
304.329	0.15
304.698	0.09
305.067	0.18
305.436	0.12
305.806	0.18
306.175	0.13
306.544	-0.06
306.913	-0.13
307.282	-0.25
307.65	-0.18
308.019	-0.27
308.388	0.08
308.757	0.04
309.126	0.11
309.495	-0.13
309.863	-0.15
310.232	-0.12
310.601	0.01
310.969	0.05
311.338	0.22
311.707	0.29
312.075	0.09
312.444	0.02
312.812	-0.05
313.181	-0.05
313.549	0.04
313.918	0.18
314.286	0.11
314.654	0.03
315.023	0.11
315.391	-0.11
315.759	-0.1
316.127	0.05
316.496	0.17
316.864	0.18
317.232	0.35
317.6	0.35
317.968	0.46
318.336	0.61
318.704	0.56
319.072	0.7
319.44	0.62
319.808	0.68
320.176	0.49
320.544	0.48
320.912	0.46
321.28	0.5
321.647	0.33
322.015	0.43
322.383	0.31
322.75	0.14
323.118	-0.06
323.486	-0.07
323.853	-0.02
324.221	0.36
324.588	0.53
324.956	0.8
325.323	0.63
325.691	0.54
326.058	0.2
326.426	-0.05
326.793	-0.15
327.16	0.15
327.528	0.13
327.895	0.15
328.262	0.47
328.629	0.52
328.996	0.54
329.363	0.69
329.731	0.58
330.098	0.33
330.465	0.21
330.832	-0.16
331.199	-0.26
331.566	-0.13
331.932	0
332.299	0.16
332.666	0.37
333.033	0.24
333.4	0.14
333.766	-0.03
334.133	-0.13
334.5	-0.03
334.867	0
335.233	-0.17
335.6	-0.08
335.966	-0.02
336.333	-0.18
336.699	-0.12
337.066	0.13
337.432	0.06
337.799	0.02
338.165	0.1
338.531	0.13
338.898	0.03
339.264	0.09
339.63	0.05
339.996	-0.11
340.363	0.04
340.729	0.05
341.095	-0.09
341.461	0.01
341.827	0.14
342.193	-0.02
342.559	0.19
342.925	0.33
343.291	0.31
343.657	0.25
344.023	0.16
344.388	0.01
344.754	-0.08
345.12	-0.1
345.486	0.07
345.851	0.29
346.217	0.44
346.583	0.5
346.948	0.54
347.314	0.4
347.679	0.19
348.045	0.02
348.41	-0.09
348.776	0.02
349.141	0.05
349.507	0
349.872	0.13
350.237	0.09
350.603	-0.03
350.968	-0.05
351.333	0.14
351.698	-0.01
352.063	0.06
352.428	0.13
352.794	0.11
353.159	0.12
353.524	0.19
353.889	0.28
354.254	0.02
354.618	-0.02
354.983	-0.1
355.348	-0.2
355.713	-0.22
356.078	-0.07
356.443	-0.04
356.807	-0.04
357.172	0.03
357.537	0.04
357.901	0.09
358.266	0.04
358.63	0.12
358.995	0.15
359.359	0.36
359.724	0.29
360.088	0.48
360.453	0.49
360.817	0.34
361.181	0.13
361.546	0.08
361.91	-0.05
362.274	-0.06
362.638	0.03
363.003	-0.02
363.367	-0.05
363.731	0.06
364.095	-0.09
364.459	-0.05
364.823	0.05
365.187	0.11
365.551	0.05
365.915	0.06
366.279	0.04
366.642	0.07
367.006	0.18
367.37	0.1
367.734	0.07
368.097	0.1
368.461	0.04
368.825	0.04
369.188	0.16
369.552	0.45
369.915	0.41
370.279	0.45
370.642	0.56
371.006	0.34
371.369	0.11
371.732	-0.07
372.096	-0.31
372.459	-0.48
372.822	-0.28
373.186	-0.26
373.549	-0.18
373.912	0.01
374.275	0.03
374.638	0.07
375.001	-0.1
375.364	0.02
375.727	0.02
376.09	0.08
376.453	-0.06
376.816	0.08
377.179	0.1
377.542	0.07
377.904	-0.08
378.267	0.02
378.63	0.05
378.993	0.23
379.355	0.41
379.718	0.52
380.08	0.57
380.443	0.47
380.806	0.24
381.168	0.04
381.53	-0.02
381.893	-0.14
382.255	-0.07
382.618	-0.18
382.98	-0.24
383.342	-0.19
383.704	-0.1
384.067	-0.12
384.429	-0.04
384.791	0.07
385.153	0.12
385.515	0.19
385.877	0.09
386.239	0.11
386.601	0.06
386.963	0.05
387.325	-0.02
387.687	0.16
388.049	0.12
388.41	0.05
388.772	-0.05
389.134	-0.25
389.496	-0.5
389.857	-0.45
390.219	-0.44
390.58	-0.36
390.942	-0.24
391.303	0.18
391.665	0.19
392.026	0.19
392.388	0.28
392.749	0.26
393.111	0.08
393.472	0.11
393.833	0.07
394.194	-0.04
394.556	-0.01
394.917	0
395.278	-0.05
395.639	-0.02
396	-0.01
396.361	0.01
396.722	-0.15
397.083	-0.1
397.444	-0.05
397.805	-0.04
398.166	-0.04
398.526	0.07
398.887	0.07
399.248	0.06
399.609	0.08
399.969	0.06
400.33	0.05
400.691	-0.08
401.051	-0.07
401.412	-0.05
401.772	-0.03
402.133	0.02
402.493	0.15
402.853	0.12
403.214	0.06
403.574	0.12
403.934	-0.04
404.295	-0.09
404.655	-0.1
405.015	-0.04
405.375	-0.12
405.735	-0.09
406.095	-0.06
406.455	-0.03
406.815	-0.13
407.175	0.03
407.535	0.06
407.895	0.03
408.255	0.04
408.615	0.12
408.975	-0.03
409.334	0.01
409.694	0.09
410.054	0.1
410.413	-0.01
410.773	0.01
411.133	0.04
411.492	-0.08
411.852	-0.03
412.211	0.11
412.571	0.16
412.93	0.13
413.289	0.18
413.649	0.1
414.008	-0.02
414.367	-0.06
414.726	-0.07
415.086	-0.1
415.445	-0.14
415.804	-0.19
416.163	-0.3
416.522	-0.32
416.881	-0.27
417.24	-0.18
417.599	-0.08
417.958	0.02
418.316	0.06
418.675	0.04
419.034	0.04
419.393	0.04
419.751	0.05
420.11	0.11
420.469	0.16
420.827	0.17
421.186	0.18
421.544	0.16
421.903	0.1
422.261	0.08
422.62	-0
422.978	-0.02
423.336	0
423.695	0.01
424.053	0.04
424.411	0.07
424.769	0.07
425.128	0.06
425.486	0.08
425.844	0.09
426.202	0.08
426.56	0.11
426.918	0.11
427.276	0.07
427.634	0.02
427.991	0.08
428.349	0.15
428.707	0.18
429.065	0.13
429.423	0.21
429.78	0.21
430.138	0.13
430.495	0.04
430.853	0.14
431.211	0.03
431.568	0.04
431.925	-0.01
432.283	0.05
432.64	0.03
432.998	0
433.355	0.01
433.712	0.09
434.069	0.05
434.427	0.11
434.784	0.18
435.141	0.15
435.498	0.13
435.855	0.18
436.212	0.12
436.569	0.06
436.926	0.02
437.283	-0.09
437.64	-0.17
437.996	-0.15
438.353	-0.11
438.71	-0.06
439.067	-0.01
439.423	0.07
439.78	0.03
440.137	0.04
440.493	-0
440.85	0.01
441.206	-0.04
441.563	0.01
441.919	-0.03
442.275	-0.02
442.632	0.02
442.988	0.01
443.344	0.01
443.7	0.01
444.057	0.08
444.413	0.07
444.769	0.11
445.125	0.12
445.481	0.11
445.837	0.08
446.193	0.06
446.549	0.07
446.905	0.06
447.26	0.11
447.616	0.14
447.972	0.16
448.328	0.13
448.683	0.12
449.039	0.15
449.395	0.13
449.75	0.17
450.106	0.18
450.461	0.17
450.817	0.09
451.172	0.08
451.527	0.01
451.883	0.05
452.238	0.03
452.593	0.1
452.949	0.07
453.304	0.06
453.659	0.04
454.014	-0.02
454.369	-0.08
454.724	-0.05
455.079	0.01
455.434	-0.02
455.789	0.01
456.144	0.03
456.499	0.05
456.853	0.02
457.208	0
457.563	0.05
457.918	0.05
458.272	0.05
458.627	0.01
458.981	0.09
459.336	0.06
459.69	0.01
460.045	0.01
460.399	0.04
460.754	-0.02
461.108	0.04
461.462	0.06
461.817	0.05
462.171	0.03
462.525	0.05
462.879	0.05
463.233	0.08
463.587	0.06
463.941	0.05
464.295	0.09
464.649	0.05
465.003	-0.01
465.357	0.01
465.711	0.02
466.065	-0.03
466.418	-0.04
466.772	0.05
467.126	0.03
467.479	0.05
467.833	0.03
468.186	0.03
468.54	-0.01
468.893	0.06
469.247	0.05
469.6	0.1
469.954	0.1
470.307	0.14
470.66	0.11
471.013	0.08
471.367	0.05
471.72	0.01
472.073	0.06
472.426	0.06
472.779	0.09
473.132	0.12
473.485	0.09
473.838	0.04
474.191	0.05
474.544	0.05
474.896	0.05
475.249	0.1
475.602	0.08
475.955	0.07
476.307	0.07
476.66	0.03
477.012	0.03
477.365	0.03
477.717	0.03
478.07	0.03
478.422	0.04
478.775	0.03
479.127	0.05
479.479	0.01
479.831	0.05
480.184	0.07
480.536	0.09
480.888	0.06
481.24	0.08
481.592	0.07
481.944	0.03
482.296	0.04
482.648	0.03
483	0.01
483.352	-0
483.703	0.01
484.055	0.01
484.407	0.02
484.759	0.04
485.11	0.06
485.462	0.07
485.813	0.06
486.165	0.04
486.516	0.01
486.868	-0.01
487.219	-0.01
487.571	-0
487.922	0.01
488.273	0.03
488.624	0.05
488.976	0.05
489.327	0.05
489.678	0.11
490.029	0.1
490.38	0.12
490.731	0.15
491.082	0.15
491.433	0.1
491.784	0.08
492.135	0.08
492.485	0.06
492.836	0.05
493.187	0.04
493.537	0.05
493.888	0.05
494.239	0.08
494.589	0.08
494.94	0.08
495.29	0.1
495.641	0.09
495.991	0.09
496.341	0.1
496.692	0.1
497.042	0.07
497.392	0.07
497.742	-0.03
498.092	-0.02
498.442	0.03
498.793	0.08
499.143	0.06
499.493	0.04
499.842	-0.01
500.192	-0.06
500.542	-0.11
500.892	-0.09
501.242	0.01
501.591	0.01
501.941	0.02
502.291	0
502.64	-0.01
502.99	-0.04
503.339	-0.01
503.689	-0.01
504.038	0.05
504.388	0.08
504.737	0.09
505.086	0.13
505.436	0.13
505.785	0.08
506.134	0.03
506.483	0.03
506.832	0.01
507.181	0.03
507.53	0.01
507.879	0.05
508.228	0.02
508.577	0.02
508.926	0
509.275	0.01
509.624	0.03
509.972	0.03
510.321	0.02
510.67	0.02
511.018	0.06
511.367	0.03
511.715	0.05
512.064	0.03
512.412	0.06
512.761	-0.03
513.109	-0.04
513.457	-0.04
513.806	-0.05
514.154	-0.04
514.502	0.04
514.85	0.04
515.198	0.03
515.546	0.05
515.894	-0.01
516.242	-0.07
516.59	-0.02
516.938	0.03
517.286	0.06
517.634	0.08
517.981	0.12
518.329	0.11
518.677	0.06
519.024	0.06
519.372	0.05
519.72	0.05
520.067	0.06
520.415	0.05
520.762	0.06
521.109	0.09
521.457	0.08
521.804	0.07
522.151	0.11
522.498	0.05
522.846	0.03
523.193	0
523.54	0.01
523.887	-0.02
524.234	0.02
524.581	0.03
524.928	0.03
525.275	0.06
525.621	0.09
525.968	0.05
526.315	-0.01
526.662	0.01
527.008	0.01
527.355	0.02
527.701	0.05
528.048	0.09
528.394	0.07
528.741	0.05
529.087	0.05
529.434	0.05
529.78	0.04
530.126	0.04
530.472	0.05
530.819	0.03
531.165	0.02
531.511	0.03
531.857	0.06
532.203	0.04
532.549	0.08
532.895	0.06
533.241	0.04
533.586	0.04
533.932	0.06
534.278	0.04
534.624	0.05
534.969	0.06
535.315	0.05
535.661	0.03
536.006	0.04
536.352	0.04
536.697	0.05
537.042	0.06
537.388	0.07
537.733	0.06
538.078	0.06
538.424	0.02
538.769	0.04
539.114	0.06
539.459	0.06
539.804	0.07
540.149	0.11
540.494	0.08
540.839	0.04
541.184	0.07
541.529	0.07
541.873	0.04
542.218	0.04
542.563	0.02
542.908	0.01
543.252	0.01
543.597	0.02
543.941	0.04
544.286	0.06
544.63	0.08
544.975	0.05
545.319	0.06
545.663	0
546.007	-0.03
546.352	-0.03
546.696	0.01
547.04	0.01
547.384	0.03
547.728	0.06
548.072	0.04
548.416	0.01
548.76	0.06
549.104	0.07
549.448	0.05
549.791	0.07
550.135	0.09
550.479	0.06
550.823	0.03
551.166	0.07
551.51	0.07
551.853	0.01
552.197	-0.01
552.54	0.07
552.883	0.08
553.227	0.07
553.57	0.1
553.913	0.11
554.257	0.07
554.6	0.03
554.943	0.01
555.286	-0.03
555.629	-0.03
555.972	-0.09
556.315	-0.13
556.658	-0.1
557.001	-0.11
557.343	-0.13
557.686	-0.13
558.029	-0.1
558.371	-0.07
558.714	-0.03
559.057	0
559.399	0.03
559.742	0.06
560.084	0.05
560.427	0.08
560.769	0.02
561.111	-0.02
561.453	-0.03
561.796	-0.12
562.138	-0.13
562.48	-0.11
562.822	-0.14
563.164	-0.12
563.506	-0.07
563.848	-0.02
564.19	0.03
564.532	0.14
564.874	0.17
565.215	0.15
565.557	0.17
565.899	0.11
566.24	0.06
566.582	0.03
566.924	0.06
567.265	0.06
567.606	0.06
567.948	0.07
568.289	0.05
568.631	0.04
568.972	-0
569.313	0
569.654	0.01
569.995	0
570.336	-0.01
570.677	-0.01
571.018	0.01
571.359	0
571.7	-0
572.041	0
572.382	0.01
572.723	0
573.064	0.04
573.404	0.05
573.745	0.06
574.085	0.07
574.426	0.06
574.766	0.04
575.107	0.05
575.447	0.05
575.788	0.06
576.128	0.07
576.468	0.06
576.808	0.1
577.149	0.08
577.489	0.04
577.829	0.02
578.169	-0.01
578.509	-0.01
578.849	0.06
579.189	0.02
579.529	0.03
579.868	0.04
580.208	0.08
580.548	-0.01
580.887	-0.02
581.227	-0
581.567	-0.03
581.906	0.01
582.246	0.04
582.585	0.05
582.925	0.07
583.264	0.06
583.603	0.01
583.942	-0.05
584.282	0.01
584.621	0.02
584.96	-0
585.299	0.03
585.638	0.13
585.977	0.08
586.316	0.07
586.655	0.17
586.994	0.04
587.332	0.05
587.671	0.17
588.01	0.1
588.348	0.02
588.687	0.17
589.026	0.12
589.364	0.07
589.703	0.14
590.041	0.13
590.379	0.07
590.718	0.1
591.056	0.01
591.394	-0.02
591.732	0.03
592.07	0.09
592.409	0.09
592.747	0.16
593.085	0.19
593.423	0.18
593.76	0.09
594.098	0.1
594.436	0.18
594.774	0.16
595.112	0.12
595.449	0.14
595.787	0.15
596.124	0.08
596.462	0.1
596.799	0.16
597.137	0.18
597.474	0.17
597.812	0.1
598.149	0.04
598.486	-0.02
598.823	-0.03
599.16	-0.07
599.498	0.04
599.835	0.09
600.172	0.12
600.509	0.11
600.845	0.08
601.182	0.03
601.519	0.04
601.856	0.08
602.193	0.12
602.529	0.14
602.866	0.16
603.202	0.14
603.539	0.05
603.875	-0.01
604.212	0.05
604.548	0.06
604.885	0.06
605.221	0.1
605.557	0.16
605.893	0.17
606.23	0.03
606.566	0.06
606.902	0.03
607.238	0.02
607.574	-0.11
607.91	0.02
608.245	-0.04
608.581	-0.01
608.917	-0.05
609.253	0.02
609.588	0.02
609.924	0.06
610.26	0.07
610.595	0.1
610.931	0.08
611.266	0.06
611.601	0.05
611.937	-0.04
612.272	-0.5
612.607	-0.58
612.942	-0.45
613.278	-0.46
613.613	-0.42
613.948	0.07
614.283	0.13
614.618	-0.04
614.953	0.01
615.287	0.03
615.622	-0.02
615.957	0.03
616.292	0.21
616.626	0.19
616.961	0.25
617.295	0.29
617.63	0.3
617.964	0.2
618.299	0.23
618.633	0.24
618.968	0.27
619.302	0.23
619.636	0.3
619.97	0.15
620.304	0.12
620.638	0.11
620.972	0.09
621.306	0.06
621.64	0.15
621.974	0.17
622.308	0.15
622.642	0.29
622.976	0.21
623.309	0.25
623.643	0.19
623.977	0.21
624.31	0.13
624.644	0.17
624.977	0.22
625.31	0.31
625.644	0.32
625.977	0.27
626.31	0.33
626.643	0.25
626.977	0.21
627.31	0.08
627.643	0.07
627.976	0.01
628.309	0.04
628.642	-0.02
628.974	0.15
629.307	0.12
629.64	0.09
629.973	0.12
630.305	0.22
630.638	0.23
630.971	0.31
631.303	0.42
631.636	0.41
631.968	0.41
632.3	0.23
632.633	0.2
632.965	0.08
633.297	0.04
633.629	0.02
633.961	0.07
634.293	0.16
634.625	0.35
634.957	0.31
635.289	0.36
635.621	0.47
635.953	0.44
636.285	0.35
636.617	0.51
636.948	0.46
637.28	0.49
637.611	0.51
637.943	0.37
638.274	0.28
638.606	0.3
638.937	0.2
639.269	0.16
639.6	0.28
639.931	0.32
640.262	0.26
640.593	0.32
640.924	0.39
641.255	0.44
641.586	0.28
641.917	0.31
642.248	0.34
642.579	0.19
642.91	0.17
643.24	0.24
643.571	0.32
643.902	0.24
644.232	0.2
644.563	0.19
644.893	0.38
645.224	0.24
645.554	0.2
645.884	0.35
646.215	0.22
646.545	0.18
646.875	0.34
647.205	0.5
647.535	0.59
647.865	0.75
648.195	0.64
648.525	0.52
648.855	0.5
649.185	0.27
649.515	0.24
649.844	0.26
650.174	0.44
650.504	0.54
650.833	0.75
651.163	0.76
651.492	0.93
651.822	0.86
652.151	0.72
652.48	0.69
652.81	0.78
653.139	0.73
653.468	0.68
653.797	0.51
654.126	0.65
654.455	0.69
654.784	0.78
655.113	0.96
655.442	1.29
655.771	1.17
656.099	1.14
656.428	1.01
656.757	0.95
657.085	0.83
657.414	0.95
657.742	0.93
658.071	1.05
658.399	1.03
658.728	1.08
659.056	1.01
659.384	0.96
659.712	0.95
660.04	0.98
660.369	1.06
660.697	1.05
661.025	1.23
661.353	1.28
661.68	1.36
662.008	1.49
662.336	1.67
662.664	1.66
662.991	1.71
663.319	1.77
663.647	1.65
663.974	1.57
664.302	1.63
664.629	1.66
664.956	1.6
665.284	1.56
665.611	1.63
665.938	1.52
666.265	1.69
666.593	1.79
666.92	1.95
667.247	1.91
667.574	2
667.9	1.92
668.227	2.05
668.554	2.13
668.881	2.22
669.208	2.45
669.534	2.35
669.861	2.22
670.187	2.07
670.514	2.09
670.84	1.9
671.167	1.88
671.493	2.12
671.819	2.48
672.146	2.7
672.472	2.89
672.798	3.33
673.124	3.3
673.45	3.02
673.776	2.86
674.102	2.98
674.428	2.68
674.754	2.67
675.079	2.96
