Data from Hd-i3_Reflection_15-43-48-406.txt Node
Date: Tue Aug 16 15:43:48 CEST 2022
User: IDIV
Spectrometer: FLMS14958
Trigger mode: 0
Integration Time (sec): 1.000000E-1
Scans to average: 10
Electric dark correction enabled: true
Nonlinearity correction enabled: true
Boxcar width: 2
XAxis mode: Wavelengths
Number of Pixels in Spectrum: 2048
>>>>>Begin Spectral Data<<<<<
179.491	411.29
179.869	1490.45
180.247	7037.28
180.625	-304.17
181.003	-208.18
181.381	109.46
181.759	-3553.12
182.136	-116.39
182.514	-38.22
182.892	27.11
183.27	43.23
183.647	92.27
184.025	149.27
184.403	1.94
184.78	64.76
185.158	-61.04
185.536	-1006.98
185.913	-67.97
186.291	-32.49
186.668	11.68
187.046	51.83
187.423	78.79
187.801	49.07
188.178	33.68
188.556	36.2
188.933	22.16
189.31	22.62
189.688	25.07
190.065	29.93
190.442	24.21
190.82	35.63
191.197	30.4
191.574	22.19
191.951	17.56
192.329	20.67
192.706	15.9
193.083	12.8
193.46	11.3
193.837	18.58
194.214	11.2
194.591	13.85
194.968	18.19
195.345	21.76
195.722	22.29
196.099	25.05
196.476	25.67
196.853	22.59
197.23	28.53
197.607	24.88
197.984	25.96
198.36	18.39
198.737	15.98
199.114	3.68
199.491	4.37
199.867	6.5
200.244	9.68
200.621	17.18
200.997	19.81
201.374	12.59
201.75	6.83
202.127	4.6
202.504	-1.15
202.88	2.39
203.257	3.55
203.633	8.81
204.01	13.93
204.386	11.49
204.762	7.24
205.139	17.02
205.515	14.51
205.891	10.93
206.268	2.07
206.644	2.13
207.02	-1.46
207.396	-0.28
207.773	5.72
208.149	20.6
208.525	24.86
208.901	22.24
209.277	20.85
209.653	16.51
210.029	9.48
210.405	11.5
210.781	10.96
211.157	9.22
211.533	11.75
211.909	17.88
212.285	11.1
212.661	3.72
213.037	13.22
213.413	5.62
213.789	-0.31
214.164	2.43
214.54	6.94
214.916	-0.87
215.292	5.39
215.667	7.95
216.043	11.2
216.419	15.08
216.794	18.54
217.17	17.55
217.545	19.13
217.921	17.29
218.296	19.34
218.672	13.75
219.047	6.67
219.423	11.79
219.798	8.55
220.174	11.08
220.549	10.49
220.924	13.96
221.3	8.1
221.675	15.45
222.05	8.32
222.425	10.62
222.801	14.96
223.176	12.15
223.551	9.05
223.926	11.41
224.301	5.92
224.676	5.7
225.051	5.15
225.426	3.95
225.801	0.58
226.176	4.73
226.551	-1.05
226.926	0.46
227.301	1.75
227.676	2.26
228.051	-0.23
228.426	1.18
228.801	0.57
229.175	-0.07
229.55	0.25
229.925	1.13
230.3	0.91
230.674	0.79
231.049	1.12
231.424	1.5
231.798	2.39
232.173	2.33
232.547	2.31
232.922	1.44
233.296	1.31
233.671	0.8
234.045	0.71
234.42	1.18
234.794	0.8
235.168	1.79
235.543	1.39
235.917	2.28
236.291	2.05
236.666	2.75
237.04	1.55
237.414	1.29
237.788	0.91
238.162	0.73
238.537	0.62
238.911	0.52
239.285	0.58
239.659	0.85
240.033	0.57
240.407	0.73
240.781	0.36
241.155	0.5
241.529	0.44
241.903	0.37
242.277	0.23
242.65	0.32
243.024	-0.02
243.398	-0.15
243.772	0.1
244.146	0.27
244.519	0.25
244.893	0.72
245.267	1.13
245.64	1.28
246.014	1.04
246.387	0.82
246.761	0.61
247.135	0.52
247.508	0.45
247.882	0.36
248.255	0.39
248.628	0.34
249.002	0.24
249.375	0.24
249.749	0.44
250.122	0.65
250.495	0.92
250.868	1.15
251.242	0.99
251.615	0.71
251.988	0.52
252.361	0.36
252.734	0.13
253.107	0.27
253.481	0.31
253.854	0.34
254.227	0.05
254.6	0.03
254.973	0.14
255.346	0.27
255.718	0.17
256.091	0.27
256.464	0.49
256.837	0.33
257.21	0.39
257.583	0.1
257.955	0.03
258.328	0.02
258.701	0.06
259.074	0.21
259.446	0.4
259.819	0.59
260.191	0.48
260.564	0.42
260.936	0.35
261.309	0.37
261.681	0.2
262.054	0.27
262.426	0.21
262.799	0.19
263.171	0.09
263.543	0.35
263.916	0.23
264.288	0.39
264.66	0.45
265.033	0.19
265.405	0.13
265.777	0.09
266.149	-0.04
266.521	-0.13
266.893	0.18
267.265	0.19
267.637	0.37
268.009	0.41
268.381	0.46
268.753	0.33
269.125	0.56
269.497	0.52
269.869	0.42
270.241	0.35
270.613	0.59
270.985	0.31
271.356	0.3
271.728	0.37
272.1	0.46
272.471	0.2
272.843	0.24
273.215	0.28
273.586	0.25
273.958	0.16
274.329	0.18
274.701	0.15
275.072	0.01
275.444	0.21
275.815	0.48
276.187	0.85
276.558	1.09
276.929	1.17
277.301	1.28
277.672	1.06
278.043	0.85
278.415	0.53
278.786	0.44
279.157	0.06
279.528	0.16
279.899	0.17
280.27	-0
280.641	0.17
281.012	0.38
281.383	0.27
281.754	0.34
282.125	0.54
282.496	0.33
282.867	0.16
283.238	0.09
283.609	-0.05
283.98	-0.19
284.35	-0.07
284.721	0.15
285.092	0.21
285.462	0.33
285.833	0.42
286.204	0.58
286.574	0.52
286.945	0.55
287.315	0.5
287.686	0.55
288.056	0.41
288.427	0.41
288.797	0.42
289.168	0.58
289.538	0.62
289.908	0.53
290.279	0.55
290.649	0.45
291.019	0.28
291.39	0.17
291.76	0.28
292.13	0.2
292.5	0.29
292.87	0.47
293.24	0.53
293.61	0.45
293.98	0.43
294.35	0.44
294.72	0.37
295.09	0.26
295.46	0.26
295.83	0.39
296.2	0.46
296.57	0.32
296.939	0.41
297.309	0.41
297.679	0.25
298.049	0.22
298.418	0.34
298.788	0.4
299.158	0.64
299.527	0.82
299.897	0.8
300.266	0.63
300.636	0.65
301.005	0.29
301.375	0.19
301.744	0.22
302.113	0.31
302.483	0.33
302.852	0.55
303.221	0.58
303.591	0.59
303.96	0.44
304.329	0.43
304.698	0.31
305.067	0.3
305.436	0.16
305.806	0.44
306.175	0.36
306.544	0.54
306.913	0.5
307.282	0.67
307.65	0.66
308.019	0.8
308.388	0.71
308.757	0.71
309.126	0.63
309.495	0.68
309.863	0.55
310.232	0.53
310.601	0.59
310.969	0.68
311.338	0.44
311.707	0.47
312.075	0.57
312.444	0.52
312.812	0.52
313.181	0.75
313.549	0.7
313.918	0.48
314.286	0.42
314.654	0.35
315.023	0.3
315.391	0.57
315.759	0.65
316.127	0.7
316.496	0.78
316.864	0.73
317.232	0.54
317.6	0.51
317.968	0.51
318.336	0.46
318.704	0.49
319.072	0.42
319.44	0.47
319.808	0.61
320.176	0.68
320.544	0.75
320.912	0.76
321.28	0.61
321.647	0.38
322.015	0.43
322.383	0.4
322.75	0.49
323.118	0.46
323.486	0.61
323.853	0.49
324.221	0.52
324.588	0.53
324.956	0.73
325.323	0.62
325.691	0.63
326.058	0.53
326.426	0.41
326.793	0.37
327.16	0.47
327.528	0.41
327.895	0.51
328.262	0.68
328.629	0.6
328.996	0.68
329.363	0.78
329.731	0.7
330.098	0.6
330.465	0.76
330.832	0.73
331.199	0.85
331.566	0.67
331.932	0.61
332.299	0.52
332.666	0.69
333.033	0.42
333.4	0.51
333.766	0.63
334.133	0.61
334.5	0.46
334.867	0.51
335.233	0.66
335.6	0.58
335.966	0.44
336.333	0.49
336.699	0.69
337.066	0.69
337.432	0.79
337.799	1.03
338.165	0.89
338.531	0.79
338.898	0.6
339.264	0.55
339.63	0.46
339.996	0.61
340.363	0.54
340.729	0.67
341.095	0.77
341.461	0.81
341.827	0.67
342.193	0.71
342.559	0.61
342.925	0.59
343.291	0.54
343.657	0.62
344.023	0.73
344.388	0.79
344.754	0.72
345.12	0.72
345.486	0.49
345.851	0.33
346.217	0.39
346.583	0.29
346.948	0.28
347.314	0.45
347.679	0.54
348.045	0.45
348.41	0.47
348.776	0.43
349.141	0.29
349.507	0.31
349.872	0.1
350.237	0.37
350.603	0.5
350.968	0.7
351.333	0.52
351.698	0.92
352.063	0.73
352.428	0.73
352.794	0.61
353.159	0.68
353.524	0.45
353.889	0.56
354.254	0.47
354.618	0.53
354.983	0.7
355.348	0.59
355.713	0.45
356.078	0.42
356.443	0.42
356.807	0.33
357.172	0.45
357.537	0.52
357.901	0.49
358.266	0.59
358.63	0.59
358.995	0.48
359.359	0.43
359.724	0.53
360.088	0.44
360.453	0.23
360.817	0.41
361.181	0.4
361.546	0.28
361.91	0.31
362.274	0.41
362.638	0.44
363.003	0.4
363.367	0.38
363.731	0.42
364.095	0.39
364.459	0.39
364.823	0.36
365.187	0.48
365.551	0.39
365.915	0.45
366.279	0.49
366.642	0.59
367.006	0.63
367.37	0.7
367.734	0.65
368.097	0.57
368.461	0.51
368.825	0.63
369.188	0.55
369.552	0.57
369.915	0.5
370.279	0.82
370.642	0.81
371.006	0.86
371.369	0.95
371.732	0.98
372.096	0.95
372.459	1.08
372.822	0.97
373.186	1.06
373.549	1.22
373.912	1.12
374.275	1
374.638	1.13
375.001	1.21
375.364	1.2
375.727	1.29
376.09	1.24
376.453	1.29
376.816	1.23
377.179	1.27
377.542	1.14
377.904	1.15
378.267	1.21
378.63	1.4
378.993	1.43
379.355	1.62
379.718	1.75
380.08	1.63
380.443	1.54
380.806	1.62
381.168	1.6
381.53	1.61
381.893	1.78
382.255	1.9
382.618	1.9
382.98	1.91
383.342	1.94
383.704	1.9
384.067	1.84
384.429	1.74
384.791	1.77
385.153	1.87
385.515	2.01
385.877	2.07
386.239	2.18
386.601	2.27
386.963	2.27
387.325	2.29
387.687	2.32
388.049	2.36
388.41	2.33
388.772	2.33
389.134	2.29
389.496	2.23
389.857	2.34
390.219	2.42
390.58	2.38
390.942	2.4
391.303	2.56
391.665	2.39
392.026	2.35
392.388	2.45
392.749	2.46
393.111	2.38
393.472	2.51
393.833	2.52
394.194	2.47
394.556	2.49
394.917	2.45
395.278	2.41
395.639	2.32
396	2.33
396.361	2.34
396.722	2.44
397.083	2.43
397.444	2.57
397.805	2.61
398.166	2.65
398.526	2.54
398.887	2.56
399.248	2.46
399.609	2.48
399.969	2.45
400.33	2.57
400.691	2.51
401.051	2.62
401.412	2.67
401.772	2.62
402.133	2.52
402.493	2.63
402.853	2.53
403.214	2.41
403.574	2.36
403.934	2.36
404.295	2.32
404.655	2.32
405.015	2.37
405.375	2.42
405.735	2.37
406.095	2.23
406.455	2.18
406.815	2.1
407.175	2.06
407.535	2.06
407.895	2.3
408.255	2.35
408.615	2.31
408.975	2.28
409.334	2.27
409.694	2.07
410.054	2.03
410.413	2.12
410.773	2.2
411.133	2.24
411.492	2.33
411.852	2.35
412.211	2.3
412.571	2.2
412.93	2.07
413.289	2.03
413.649	2
414.008	2
414.367	1.99
414.726	2.03
415.086	1.95
415.445	1.86
415.804	1.79
416.163	1.86
416.522	1.88
416.881	1.94
417.24	2.04
417.599	2.07
417.958	1.99
418.316	1.99
418.675	1.95
419.034	1.88
419.393	1.86
419.751	1.89
420.11	1.88
420.469	1.88
420.827	1.89
421.186	1.89
421.544	1.84
421.903	1.87
422.261	1.86
422.62	1.85
422.978	1.84
423.336	1.86
423.695	1.83
424.053	1.86
424.411	1.83
424.769	1.85
425.128	1.82
425.486	1.78
425.844	1.71
426.202	1.72
426.56	1.7
426.918	1.75
427.276	1.83
427.634	1.89
427.991	1.91
428.349	1.93
428.707	1.88
429.065	1.85
429.423	1.86
429.78	1.91
430.138	1.91
430.495	1.94
430.853	1.92
431.211	1.98
431.568	1.96
431.925	1.97
432.283	1.98
432.64	1.93
432.998	1.88
433.355	1.84
433.712	1.77
434.069	1.68
434.427	1.7
434.784	1.74
435.141	1.72
435.498	1.76
435.855	1.82
436.212	1.83
436.569	1.77
436.926	1.78
437.283	1.69
437.64	1.71
437.996	1.72
438.353	1.68
438.71	1.65
439.067	1.72
439.423	1.66
439.78	1.63
440.137	1.61
440.493	1.65
440.85	1.65
441.206	1.69
441.563	1.73
441.919	1.81
442.275	1.79
442.632	1.81
442.988	1.84
443.344	1.8
443.7	1.81
444.057	1.89
444.413	1.87
444.769	1.87
445.125	1.84
445.481	1.85
445.837	1.88
446.193	1.89
446.549	1.86
446.905	1.95
447.26	1.99
447.616	2
447.972	2.04
448.328	2.07
448.683	2.07
449.039	2.08
449.395	2.03
449.75	2.08
450.106	2.14
450.461	2.19
450.817	2.22
451.172	2.32
451.527	2.31
451.883	2.34
452.238	2.3
452.593	2.26
452.949	2.19
453.304	2.19
453.659	2.23
454.014	2.3
454.369	2.34
454.724	2.43
455.079	2.46
455.434	2.42
455.789	2.4
456.144	2.34
456.499	2.33
456.853	2.34
457.208	2.4
457.563	2.44
457.918	2.51
458.272	2.47
458.627	2.47
458.981	2.43
459.336	2.37
459.69	2.39
460.045	2.38
460.399	2.4
460.754	2.42
461.108	2.47
461.462	2.5
461.817	2.57
462.171	2.59
462.525	2.61
462.879	2.61
463.233	2.51
463.587	2.45
463.941	2.45
464.295	2.47
464.649	2.48
465.003	2.55
465.357	2.56
465.711	2.43
466.065	2.41
466.418	2.41
466.772	2.34
467.126	2.35
467.479	2.39
467.833	2.39
468.186	2.4
468.54	2.45
468.893	2.51
469.247	2.58
469.6	2.6
469.954	2.55
470.307	2.53
470.66	2.5
471.013	2.45
471.367	2.45
471.72	2.47
472.073	2.45
472.426	2.44
472.779	2.49
473.132	2.46
473.485	2.46
473.838	2.5
474.191	2.46
474.544	2.41
474.896	2.39
475.249	2.37
475.602	2.36
475.955	2.34
476.307	2.36
476.66	2.34
477.012	2.35
477.365	2.34
477.717	2.38
478.07	2.38
478.422	2.4
478.775	2.41
479.127	2.43
479.479	2.44
479.831	2.42
480.184	2.41
480.536	2.46
480.888	2.51
481.24	2.52
481.592	2.49
481.944	2.49
482.296	2.42
482.648	2.42
483	2.37
483.352	2.33
483.703	2.35
484.055	2.36
484.407	2.35
484.759	2.38
485.11	2.42
485.462	2.43
485.813	2.43
486.165	2.42
486.516	2.42
486.868	2.42
487.219	2.41
487.571	2.41
487.922	2.43
488.273	2.43
488.624	2.45
488.976	2.47
489.327	2.51
489.678	2.53
490.029	2.56
490.38	2.58
490.731	2.63
491.082	2.61
491.433	2.64
491.784	2.66
492.135	2.69
492.485	2.7
492.836	2.74
493.187	2.76
493.537	2.78
493.888	2.81
494.239	2.9
494.589	2.92
494.94	2.96
495.29	2.99
495.641	3.04
495.991	3.03
496.341	3.09
496.692	3.15
497.042	3.18
497.392	3.15
497.742	3.16
498.092	3.19
498.442	3.21
498.793	3.28
499.143	3.38
499.493	3.47
499.842	3.49
500.192	3.54
500.542	3.56
500.892	3.62
501.242	3.6
501.591	3.67
501.941	3.72
502.291	3.77
502.64	3.79
502.99	3.81
503.339	3.83
503.689	3.9
504.038	3.98
504.388	4.08
504.737	4.25
505.086	4.36
505.436	4.35
505.785	4.39
506.134	4.42
506.483	4.43
506.832	4.48
507.181	4.62
507.53	4.66
507.879	4.66
508.228	4.68
508.577	4.74
508.926	4.75
509.275	4.83
509.624	4.9
509.972	4.99
510.321	5.03
510.67	5.07
511.018	5.13
511.367	5.21
511.715	5.27
512.064	5.36
512.412	5.45
512.761	5.55
513.109	5.6
513.457	5.67
513.806	5.65
514.154	5.73
514.502	5.7
514.85	5.8
515.198	5.81
515.546	5.9
515.894	5.92
516.242	6.06
516.59	6.09
516.938	6.19
517.286	6.27
517.634	6.31
517.981	6.31
518.329	6.39
518.677	6.42
519.024	6.49
519.372	6.53
519.72	6.59
520.067	6.61
520.415	6.69
520.762	6.77
521.109	6.92
521.457	7
521.804	7.04
522.151	7.11
522.498	7.11
522.846	7.11
523.193	7.16
523.54	7.2
523.887	7.23
524.234	7.25
524.581	7.23
524.928	7.23
525.275	7.28
525.621	7.29
525.968	7.31
526.315	7.37
526.662	7.39
527.008	7.46
527.355	7.49
527.701	7.53
528.048	7.58
528.394	7.6
528.741	7.6
529.087	7.65
529.434	7.69
529.78	7.72
530.126	7.79
530.472	7.84
530.819	7.89
531.165	7.91
531.511	7.97
531.857	8.01
532.203	8.04
532.549	8
532.895	8.03
533.241	8.02
533.586	8.06
533.932	8.09
534.278	8.17
534.624	8.21
534.969	8.27
535.315	8.28
535.661	8.28
536.006	8.27
536.352	8.29
536.697	8.28
537.042	8.29
537.388	8.35
537.733	8.44
538.078	8.47
538.424	8.49
538.769	8.5
539.114	8.52
539.459	8.46
539.804	8.49
540.149	8.55
540.494	8.58
540.839	8.53
541.184	8.56
541.529	8.58
541.873	8.64
542.218	8.69
542.563	8.76
542.908	8.85
543.252	8.88
543.597	8.89
543.941	8.95
544.286	9.01
544.63	9.01
544.975	9.07
545.319	9.09
545.663	9.09
546.007	9.09
546.352	9.07
546.696	9.07
547.04	9.09
547.384	9.11
547.728	9.11
548.072	9.18
548.416	9.18
548.76	9.23
549.104	9.28
549.448	9.32
549.791	9.34
550.135	9.43
550.479	9.46
550.823	9.43
551.166	9.53
551.51	9.55
551.853	9.49
552.197	9.5
552.54	9.49
552.883	9.49
553.227	9.56
553.57	9.69
553.913	9.7
554.257	9.78
554.6	9.77
554.943	9.77
555.286	9.75
555.629	9.8
555.972	9.8
556.315	9.83
556.658	9.79
557.001	9.81
557.343	9.82
557.686	9.92
558.029	9.97
558.371	9.98
558.714	10.01
559.057	10
559.399	10
559.742	10.04
560.084	10.1
560.427	10.16
560.769	10.22
561.111	10.28
561.453	10.3
561.796	10.31
562.138	10.3
562.48	10.25
562.822	10.18
563.164	10.18
563.506	10.14
563.848	10.08
564.19	10.13
564.532	10.17
564.874	10.21
565.215	10.28
565.557	10.36
565.899	10.34
566.24	10.3
566.582	10.27
566.924	10.3
567.265	10.25
567.606	10.35
567.948	10.46
568.289	10.47
568.631	10.53
568.972	10.61
569.313	10.57
569.654	10.53
569.995	10.53
570.336	10.44
570.677	10.4
571.018	10.38
571.359	10.37
571.7	10.42
572.041	10.4
572.382	10.4
572.723	10.4
573.064	10.35
573.404	10.31
573.745	10.32
574.085	10.41
574.426	10.48
574.766	10.54
575.107	10.56
575.447	10.6
575.788	10.5
576.128	10.4
576.468	10.44
576.808	10.49
577.149	10.42
577.489	10.44
577.829	10.53
578.169	10.57
578.509	10.58
578.849	10.67
579.189	10.72
579.529	10.66
579.868	10.59
580.208	10.54
580.548	10.58
580.887	10.66
581.227	10.77
581.567	10.77
581.906	10.79
582.246	10.84
582.585	10.79
582.925	10.72
583.264	10.66
583.603	10.72
583.942	10.67
584.282	10.63
584.621	10.66
584.96	10.74
585.299	10.72
585.638	10.69
585.977	10.76
586.316	10.72
586.655	10.65
586.994	10.56
587.332	10.6
587.671	10.59
588.01	10.6
588.348	10.72
588.687	10.84
589.026	10.87
589.364	10.79
589.703	10.84
590.041	10.69
590.379	10.63
590.718	10.56
591.056	10.57
591.394	10.54
591.732	10.59
592.07	10.65
592.409	10.62
592.747	10.71
593.085	10.73
593.423	10.79
593.76	10.8
594.098	10.86
594.436	10.86
594.774	10.86
595.112	10.88
595.449	10.83
595.787	10.79
596.124	10.74
596.462	10.77
596.799	10.78
597.137	10.75
597.474	10.84
597.812	10.89
598.149	10.89
598.486	10.89
598.823	10.99
599.16	10.94
599.498	10.88
599.835	10.83
600.172	10.84
600.509	10.83
600.845	10.79
601.182	10.86
601.519	10.93
601.856	10.9
602.193	10.91
602.529	10.99
602.866	10.95
603.202	10.98
603.539	11.04
603.875	10.96
604.212	10.93
604.548	10.93
604.885	10.87
605.221	10.82
605.557	10.8
605.893	10.77
606.23	10.81
606.566	10.85
606.902	10.84
607.238	10.98
607.574	11
607.91	10.94
608.245	10.88
608.581	10.8
608.917	10.63
609.253	10.63
609.588	10.66
609.924	10.79
610.26	10.91
610.595	11
610.931	11.02
611.266	11.07
611.601	10.98
611.937	10.91
612.272	10.92
612.607	10.89
612.942	10.82
613.278	10.71
613.613	10.73
613.948	10.71
614.283	10.78
614.618	10.77
614.953	10.95
615.287	10.88
615.622	10.74
615.957	10.66
616.292	10.68
616.626	10.4
616.961	10.44
617.295	10.62
617.63	10.56
617.964	10.39
618.299	10.54
618.633	10.41
618.968	10.3
619.302	10.29
619.636	10.38
619.97	10.31
620.304	10.44
620.638	10.51
620.972	10.49
621.306	10.38
621.64	10.42
621.974	10.24
622.308	10.08
622.642	10.13
622.976	10.17
623.309	10.16
623.643	10.22
623.977	10.33
624.31	10.2
624.644	10.19
624.977	10.17
625.31	10.19
625.644	10.12
625.977	10.21
626.31	10.24
626.643	10.16
626.977	10.13
627.31	10.12
627.643	10.12
627.976	10.16
628.309	10.29
628.642	10.32
628.974	10.35
629.307	10.39
629.64	10.38
629.973	10.39
630.305	10.36
630.638	10.35
630.971	10.34
631.303	10.32
631.636	10.25
631.968	10.38
632.3	10.35
632.633	10.26
632.965	10.28
633.297	10.28
633.629	10.2
633.961	10.23
634.293	10.22
634.625	10.15
634.957	10.05
635.289	10.04
635.621	10.08
635.953	10.15
636.285	10.2
636.617	10.26
636.948	10.29
637.28	10.12
637.611	10
637.943	9.84
638.274	9.69
638.606	9.47
638.937	9.52
639.269	9.53
639.6	9.33
639.931	9.34
640.262	9.41
640.593	9.37
640.924	9.3
641.255	9.53
641.586	9.45
641.917	9.36
642.248	9.28
642.579	9.22
642.91	9.06
643.24	8.96
643.571	8.84
643.902	8.76
644.232	8.57
644.563	8.43
644.893	8.38
645.224	8.36
645.554	8.37
645.884	8.28
646.215	8.3
646.545	8.22
646.875	8.04
647.205	7.83
647.535	7.77
647.865	7.72
648.195	7.58
648.525	7.6
648.855	7.58
649.185	7.54
649.515	7.46
649.844	7.58
650.174	7.51
650.504	7.48
650.833	7.42
651.163	7.38
651.492	7.23
651.822	7.14
652.151	7.02
652.48	7.13
652.81	7.13
653.139	7.34
653.468	7.29
653.797	7.31
654.126	7.14
654.455	7.02
654.784	6.85
655.113	6.96
655.442	6.95
655.771	7.01
656.099	7.01
656.428	6.98
656.757	6.85
657.085	6.84
657.414	6.68
657.742	6.7
658.071	6.71
658.399	6.64
658.728	6.49
659.056	6.45
659.384	6.34
659.712	6.25
660.04	6.26
660.369	6.29
660.697	6.25
661.025	6.19
661.353	6.05
661.68	5.96
662.008	5.92
662.336	5.9
662.664	5.87
662.991	5.8
663.319	5.73
663.647	5.69
663.974	5.62
664.302	5.72
664.629	5.82
664.956	5.73
665.284	5.61
665.611	5.47
665.938	5.38
666.265	5.31
666.593	5.44
666.92	5.39
667.247	5.53
667.574	5.42
667.9	5.26
668.227	5.07
668.554	4.91
668.881	4.72
669.208	4.78
669.534	4.83
669.861	4.94
670.187	4.85
670.514	4.85
670.84	4.91
671.167	4.89
671.493	4.77
671.819	5.11
672.146	5.23
672.472	5.01
672.798	4.91
673.124	5.04
673.45	4.78
673.776	4.76
674.102	4.88
674.428	5.25
674.754	5.34
675.079	5.42
675.405	5.62
675.731	5.68
