Data from Lg-i3_Reflection_15-52-46-386.txt Node
Date: Tue Aug 16 15:52:46 CEST 2022
User: IDIV
Spectrometer: FLMS14958
Trigger mode: 0
Integration Time (sec): 1.000000E-1
Scans to average: 10
Electric dark correction enabled: true
Nonlinearity correction enabled: true
Boxcar width: 2
XAxis mode: Wavelengths
Number of Pixels in Spectrum: 2048
>>>>>Begin Spectral Data<<<<<
179.491	11
179.869	10
180.247	-10.54
180.625	-28.02
181.003	-29.03
181.381	-148.19
181.759	1837.52
182.136	-174.61
182.514	12.32
182.892	17.25
183.27	7.69
183.647	102.48
184.025	-268.85
184.403	-118.17
184.78	-16.49
185.158	17.98
185.536	33.31
185.913	34.69
186.291	304.43
186.668	94.83
187.046	-311.4
187.423	-9.39
187.801	-0.6
188.178	24.29
188.556	27.47
188.933	38.24
189.31	33.42
189.688	29.05
190.065	16.36
190.442	8.83
190.82	-1.9
191.197	0.75
191.574	-1.05
191.951	-9.77
192.329	-8.84
192.706	-1.47
193.083	-6.88
193.46	-3.38
193.837	6.67
194.214	11.63
194.591	7.57
194.968	1.77
195.345	-7.07
195.722	-10.34
196.099	1.42
196.476	5.72
196.853	17.8
197.23	19.4
197.607	18.52
197.984	13.55
198.36	12.86
198.737	8.02
199.114	10.46
199.491	16.94
199.867	11.68
200.244	10.65
200.621	8.17
200.997	7.98
201.374	8.26
201.75	6.61
202.127	6.75
202.504	16.06
202.88	11.95
203.257	3.26
203.633	11.09
204.01	11.64
204.386	11.54
204.762	19.25
205.139	17.56
205.515	12.42
205.891	10.02
206.268	1.09
206.644	4.9
207.02	6.69
207.396	4.54
207.773	3.93
208.149	3.6
208.525	1.16
208.901	1.53
209.277	6.66
209.653	10.69
210.029	24.26
210.405	23.44
210.781	23.3
211.157	24.66
211.533	30.46
211.909	24.04
212.285	20.74
212.661	9.79
213.037	8.55
213.413	6.89
213.789	7.75
214.164	4.49
214.54	21.72
214.916	19.6
215.292	11.99
215.667	9.68
216.043	10.35
216.419	5.51
216.794	0.34
217.17	4.37
217.545	7.74
217.921	13.41
218.296	20.31
218.672	19
219.047	23.58
219.423	17.58
219.798	14.01
220.174	5.64
220.549	5.9
220.924	-0.67
221.3	0.4
221.675	-0.83
222.05	0.94
222.425	1.33
222.801	1.56
223.176	3.24
223.551	3.91
223.926	4.67
224.301	9.62
224.676	11.96
225.051	14.72
225.426	16.32
225.801	19.45
226.176	18.13
226.551	16.4
226.926	11.58
227.301	13.12
227.676	7.9
228.051	4.71
228.426	1.87
228.801	3.16
229.175	0.68
229.55	1.64
229.925	1.62
230.3	2.24
230.674	1.88
231.049	2.49
231.424	1.23
231.798	2.36
232.173	2.81
232.547	3.7
232.922	4.13
233.296	3.83
233.671	3.15
234.045	3.48
234.42	3.44
234.794	3.32
235.168	4.15
235.543	3.85
235.917	2.88
236.291	3.15
236.666	2.74
237.04	2.18
237.414	2
237.788	3.23
238.162	2.18
238.537	2.36
238.911	2.13
239.285	2.04
239.659	1.47
240.033	2.11
240.407	1.94
240.781	2.71
241.155	2.55
241.529	2.24
241.903	1.63
242.277	1.48
242.65	1.29
243.024	1.33
243.398	1.22
243.772	1.27
244.146	1.37
244.519	1.5
244.893	1.18
245.267	1.23
245.64	1.25
246.014	1.2
246.387	0.83
246.761	0.86
247.135	0.79
247.508	0.71
247.882	0.72
248.255	0.88
248.628	0.87
249.002	0.97
249.375	1.22
249.749	1.2
250.122	0.61
250.495	0.62
250.868	0.61
251.242	0.46
251.615	0.41
251.988	1.02
252.361	1.31
252.734	1.24
253.107	1.11
253.481	1.25
253.854	1.31
254.227	0.97
254.6	0.93
254.973	1.02
255.346	1.08
255.718	0.87
256.091	0.79
256.464	0.34
256.837	0.41
257.21	0.54
257.583	0.81
257.955	0.9
258.328	1.27
258.701	1.21
259.074	0.85
259.446	0.85
259.819	0.91
260.191	0.8
260.564	0.72
260.936	0.82
261.309	0.74
261.681	0.8
262.054	0.89
262.426	1.07
262.799	0.92
263.171	0.96
263.543	0.83
263.916	0.87
264.288	0.96
264.66	0.93
265.033	0.98
265.405	1.24
265.777	1.08
266.149	0.94
266.521	1.13
266.893	1.11
267.265	0.84
267.637	0.73
268.009	0.68
268.381	0.73
268.753	0.87
269.125	0.74
269.497	1.11
269.869	1.1
270.241	1.2
270.613	1.08
270.985	1.23
271.356	1.03
271.728	1.1
272.1	1.03
272.471	0.99
272.843	0.89
273.215	0.74
273.586	0.59
273.958	0.51
274.329	0.42
274.701	0.55
275.072	0.8
275.444	0.8
275.815	0.79
276.187	0.94
276.558	1.12
276.929	1.19
277.301	1.34
277.672	1.17
278.043	1.14
278.415	1.11
278.786	1.13
279.157	1.07
279.528	1.09
279.899	1.03
280.27	0.8
280.641	0.66
281.012	0.79
281.383	1.07
281.754	1.06
282.125	0.89
282.496	1.1
282.867	0.99
283.238	1
283.609	1.08
283.98	1.35
284.35	0.94
284.721	0.81
285.092	0.77
285.462	0.59
285.833	0.41
286.204	0.61
286.574	0.76
286.945	0.86
287.315	0.98
287.686	1.16
288.056	1.05
288.427	0.92
288.797	0.55
289.168	0.49
289.538	0.27
289.908	0.45
290.279	0.33
290.649	0.58
291.019	0.55
291.39	0.82
291.76	0.78
292.13	1.07
292.5	1.02
292.87	1.06
293.24	0.94
293.61	0.94
293.98	0.81
294.35	0.87
294.72	1.19
295.09	1.09
295.46	1.07
295.83	1.24
296.2	1.17
296.57	0.81
296.939	0.87
297.309	0.92
297.679	0.84
298.049	0.79
298.418	0.82
298.788	0.86
299.158	0.82
299.527	0.86
299.897	0.87
300.266	1.02
300.636	0.77
301.005	0.91
301.375	0.86
301.744	1.06
302.113	0.95
302.483	1.06
302.852	1.05
303.221	1.32
303.591	1.23
303.96	1.29
304.329	1.41
304.698	1.51
305.067	1.28
305.436	1.05
305.806	1.25
306.175	1.32
306.544	0.89
306.913	0.76
307.282	0.79
307.65	0.55
308.019	0.31
308.388	0.29
308.757	0.18
309.126	0.55
309.495	0.6
309.863	0.76
310.232	0.92
310.601	0.96
310.969	0.67
311.338	0.77
311.707	0.7
312.075	0.62
312.444	0.8
312.812	0.93
313.181	0.85
313.549	0.91
313.918	1.1
314.286	1.02
314.654	0.96
315.023	1.03
315.391	1.08
315.759	0.87
316.127	0.78
316.496	0.65
316.864	0.74
317.232	0.6
317.6	0.91
317.968	1.24
318.336	1.37
318.704	1.34
319.072	1.26
319.44	1.25
319.808	0.93
320.176	0.67
320.544	0.76
320.912	0.8
321.28	0.75
321.647	1.02
322.015	1.39
322.383	1.01
322.75	0.92
323.118	0.84
323.486	0.73
323.853	0.63
324.221	0.7
324.588	0.87
324.956	0.85
325.323	0.64
325.691	0.65
326.058	0.7
326.426	0.69
326.793	0.66
327.16	0.67
327.528	0.86
327.895	0.86
328.262	0.77
328.629	0.48
328.996	0.79
329.363	0.65
329.731	0.78
330.098	0.75
330.465	1.12
330.832	0.87
331.199	0.88
331.566	0.75
331.932	1.2
332.299	1.13
332.666	1.04
333.033	0.96
333.4	0.9
333.766	0.47
334.133	0.35
334.5	0.3
334.867	0.34
335.233	0.55
335.6	0.57
335.966	0.65
336.333	0.91
336.699	0.79
337.066	0.58
337.432	0.64
337.799	0.73
338.165	0.57
338.531	0.52
338.898	0.62
339.264	0.6
339.63	0.55
339.996	0.8
340.363	0.82
340.729	0.78
341.095	0.99
341.461	1.1
341.827	0.87
342.193	0.92
342.559	1.01
342.925	1.05
343.291	0.91
343.657	1.05
344.023	1.28
344.388	1.05
344.754	0.67
345.12	0.8
345.486	0.83
345.851	0.68
346.217	0.7
346.583	1.13
346.948	1.24
347.314	1.16
347.679	1.16
348.045	1.19
348.41	0.87
348.776	0.57
349.141	0.43
349.507	0.46
349.872	0.68
350.237	0.56
350.603	0.73
350.968	0.73
351.333	0.74
351.698	0.53
352.063	0.65
352.428	0.64
352.794	0.69
353.159	0.56
353.524	0.51
353.889	0.58
354.254	0.45
354.618	0.68
354.983	0.77
355.348	0.9
355.713	0.89
356.078	0.78
356.443	0.53
356.807	0.51
357.172	0.34
357.537	0.24
357.901	0.21
358.266	0.26
358.63	0.33
358.995	0.4
359.359	0.57
359.724	0.7
360.088	0.8
360.453	0.8
360.817	0.81
361.181	0.73
361.546	0.65
361.91	0.58
362.274	0.47
362.638	0.52
363.003	0.55
363.367	0.65
363.731	0.7
364.095	0.77
364.459	0.81
364.823	0.7
365.187	0.67
365.551	0.71
365.915	0.54
366.279	0.49
366.642	0.56
367.006	0.69
367.37	0.55
367.734	0.63
368.097	0.59
368.461	0.64
368.825	0.65
369.188	0.66
369.552	0.76
369.915	0.95
370.279	0.95
370.642	0.83
371.006	0.86
371.369	0.88
371.732	0.92
372.096	0.86
372.459	0.62
372.822	0.76
373.186	0.7
373.549	0.38
373.912	0.28
374.275	0.35
374.638	0.44
375.001	0.48
375.364	0.55
375.727	0.65
376.09	0.88
376.453	0.6
376.816	0.79
377.179	0.84
377.542	0.91
377.904	0.9
378.267	1.06
378.63	0.96
378.993	1.03
379.355	0.89
379.718	0.74
380.08	0.76
380.443	0.79
380.806	0.67
381.168	0.7
381.53	0.82
381.893	0.76
382.255	0.63
382.618	0.76
382.98	0.74
383.342	0.71
383.704	0.89
384.067	0.89
384.429	0.78
384.791	0.79
385.153	0.73
385.515	0.77
385.877	0.8
386.239	0.72
386.601	0.63
386.963	0.64
387.325	0.45
387.687	0.34
388.049	0.46
388.41	0.53
388.772	0.39
389.134	0.51
389.496	0.71
389.857	0.62
390.219	0.68
390.58	0.89
390.942	0.83
391.303	0.74
391.665	0.79
392.026	0.75
392.388	0.83
392.749	0.8
393.111	0.76
393.472	0.67
393.833	0.75
394.194	0.67
394.556	0.73
394.917	0.77
395.278	0.88
395.639	0.8
396	0.94
396.361	0.9
396.722	0.89
397.083	0.84
397.444	0.94
397.805	0.71
398.166	0.77
398.526	0.71
398.887	0.76
399.248	0.78
399.609	0.9
399.969	0.88
400.33	0.96
400.691	0.95
401.051	0.86
401.412	0.82
401.772	0.75
402.133	0.66
402.493	0.71
402.853	0.72
403.214	0.75
403.574	0.78
403.934	0.96
404.295	1.07
404.655	1.17
405.015	1.11
405.375	1.05
405.735	1.02
406.095	0.84
406.455	0.74
406.815	0.73
407.175	0.89
407.535	0.77
407.895	0.83
408.255	0.87
408.615	0.94
408.975	0.94
409.334	0.91
409.694	0.89
410.054	0.85
410.413	0.85
410.773	0.8
411.133	0.9
411.492	0.93
411.852	1.02
412.211	1.09
412.571	1.08
412.93	1.09
413.289	1.1
413.649	1.18
414.008	1.15
414.367	1.14
414.726	1.12
415.086	1.12
415.445	1.06
415.804	0.98
416.163	0.97
416.522	1.03
416.881	1
417.24	1
417.599	1
417.958	1
418.316	0.87
418.675	0.88
419.034	0.86
419.393	0.85
419.751	0.87
420.11	0.92
420.469	0.92
420.827	0.9
421.186	0.89
421.544	0.87
421.903	0.91
422.261	0.9
422.62	0.91
422.978	0.93
423.336	0.96
423.695	0.91
424.053	0.93
424.411	0.92
424.769	0.92
425.128	0.91
425.486	0.94
425.844	0.89
426.202	0.88
426.56	0.87
426.918	0.89
427.276	0.93
427.634	0.97
427.991	0.98
428.349	0.97
428.707	0.97
429.065	0.89
429.423	0.86
429.78	0.91
430.138	0.95
430.495	0.91
430.853	0.97
431.211	0.99
431.568	1.01
431.925	1.04
432.283	1.06
432.64	1.05
432.998	1.08
433.355	1.06
433.712	1.02
434.069	1.02
434.427	0.97
434.784	1
435.141	1
435.498	1.06
435.855	1.06
436.212	1.17
436.569	1.09
436.926	1.07
437.283	1
437.64	1.04
437.996	0.96
438.353	1.02
438.71	1.04
439.067	1.03
439.423	1
439.78	1.03
440.137	1.03
440.493	1.01
440.85	1.02
441.206	1.05
441.563	1
441.919	0.96
442.275	0.97
442.632	1
442.988	0.99
443.344	1.01
443.7	1.06
444.057	1.06
444.413	1.02
444.769	1.02
445.125	1.04
445.481	1
445.837	0.98
446.193	0.99
446.549	0.98
446.905	0.99
447.26	1.02
447.616	1.04
447.972	1.02
448.328	1.03
448.683	1
449.039	1
449.395	0.98
449.75	1
450.106	0.96
450.461	0.99
450.817	0.99
451.172	1.12
451.527	1.15
451.883	1.17
452.238	1.12
452.593	1.11
452.949	1.04
453.304	1.05
453.659	1.07
454.014	1.21
454.369	1.25
454.724	1.25
455.079	1.24
455.434	1.22
455.789	1.16
456.144	1.12
456.499	1.06
456.853	1.04
457.208	1.05
457.563	0.99
457.918	0.93
458.272	0.99
458.627	1.01
458.981	0.98
459.336	1
459.69	1.02
460.045	1.03
460.399	1.05
460.754	1.11
461.108	1.13
461.462	1.18
461.817	1.21
462.171	1.21
462.525	1.26
462.879	1.25
463.233	1.14
463.587	1.09
463.941	1.03
464.295	0.95
464.649	0.92
465.003	1.06
465.357	1.07
465.711	1.11
466.065	1.08
466.418	1.18
466.772	1.18
467.126	1.19
467.479	1.22
467.833	1.23
468.186	1.19
468.54	1.18
468.893	1.15
469.247	1.18
469.6	1.24
469.954	1.26
470.307	1.21
470.66	1.25
471.013	1.25
471.367	1.27
471.72	1.26
472.073	1.3
472.426	1.36
472.779	1.3
473.132	1.27
473.485	1.29
473.838	1.26
474.191	1.16
474.544	1.16
474.896	1.14
475.249	1.12
475.602	1.13
475.955	1.08
476.307	1.13
476.66	1.13
477.012	1.1
477.365	1.08
477.717	1.16
478.07	1.15
478.422	1.14
478.775	1.15
479.127	1.19
479.479	1.21
479.831	1.21
480.184	1.24
480.536	1.21
480.888	1.23
481.24	1.17
481.592	1.16
481.944	1.12
482.296	1.13
482.648	1.11
483	1.08
483.352	1.09
483.703	1.09
484.055	1.09
484.407	1.09
484.759	1.12
485.11	1.12
485.462	1.13
485.813	1.11
486.165	1.12
486.516	1.1
486.868	1.07
487.219	1.04
487.571	1.05
487.922	1.07
488.273	1.05
488.624	1.06
488.976	1.08
489.327	1.1
489.678	1.06
490.029	1.1
490.38	1.1
490.731	1.06
491.082	1.06
491.433	1.07
491.784	1.08
492.135	1.09
492.485	1.1
492.836	1.12
493.187	1.11
493.537	1.13
493.888	1.12
494.239	1.14
494.589	1.13
494.94	1.17
495.29	1.16
495.641	1.2
495.991	1.18
496.341	1.2
496.692	1.21
497.042	1.21
497.392	1.15
497.742	1.15
498.092	1.12
498.442	1.1
498.793	1.09
499.143	1.15
499.493	1.17
499.842	1.26
500.192	1.26
500.542	1.26
500.892	1.26
501.242	1.29
501.591	1.23
501.941	1.18
502.291	1.21
502.64	1.2
502.99	1.19
503.339	1.15
503.689	1.22
504.038	1.19
504.388	1.13
504.737	1.16
505.086	1.13
505.436	1.17
505.785	1.13
506.134	1.17
506.483	1.14
506.832	1.19
507.181	1.15
507.53	1.22
507.879	1.18
508.228	1.15
508.577	1.14
508.926	1.15
509.275	1.12
509.624	1.14
509.972	1.16
510.321	1.15
510.67	1.11
511.018	1.11
511.367	1.17
511.715	1.12
512.064	1.11
512.412	1.09
512.761	1.12
513.109	1.03
513.457	1.1
513.806	1.1
514.154	1.13
514.502	1.13
514.85	1.19
515.198	1.12
515.546	1.16
515.894	1.15
516.242	1.11
516.59	1.07
516.938	1.07
517.286	1.06
517.634	1.09
517.981	1.14
518.329	1.13
518.677	1.18
519.024	1.17
519.372	1.16
519.72	1.15
520.067	1.16
520.415	1.16
520.762	1.22
521.109	1.24
521.457	1.28
521.804	1.3
522.151	1.25
522.498	1.24
522.846	1.21
523.193	1.2
523.54	1.2
523.887	1.19
524.234	1.18
524.581	1.18
524.928	1.13
525.275	1.11
525.621	1.12
525.968	1.12
526.315	1.14
526.662	1.17
527.008	1.19
527.355	1.2
527.701	1.19
528.048	1.18
528.394	1.15
528.741	1.13
529.087	1.15
529.434	1.16
529.78	1.17
530.126	1.19
530.472	1.22
530.819	1.21
531.165	1.19
531.511	1.16
531.857	1.13
532.203	1.13
532.549	1.13
532.895	1.13
533.241	1.14
533.586	1.16
533.932	1.18
534.278	1.16
534.624	1.19
534.969	1.22
535.315	1.24
535.661	1.23
536.006	1.27
536.352	1.29
536.697	1.27
537.042	1.29
537.388	1.27
537.733	1.28
538.078	1.28
538.424	1.25
538.769	1.25
539.114	1.25
539.459	1.23
539.804	1.2
540.149	1.23
540.494	1.21
540.839	1.19
541.184	1.17
541.529	1.18
541.873	1.17
542.218	1.18
542.563	1.22
542.908	1.25
543.252	1.28
543.597	1.29
543.941	1.27
544.286	1.27
544.63	1.28
544.975	1.29
545.319	1.27
545.663	1.31
546.007	1.34
546.352	1.33
546.696	1.31
547.04	1.3
547.384	1.28
547.728	1.26
548.072	1.29
548.416	1.31
548.76	1.36
549.104	1.42
549.448	1.45
549.791	1.45
550.135	1.45
550.479	1.48
550.823	1.52
551.166	1.46
551.51	1.5
551.853	1.46
552.197	1.46
552.54	1.4
552.883	1.43
553.227	1.41
553.57	1.46
553.913	1.51
554.257	1.54
554.6	1.59
554.943	1.61
555.286	1.59
555.629	1.58
555.972	1.55
556.315	1.64
556.658	1.73
557.001	1.82
557.343	1.8
557.686	1.84
558.029	1.78
558.371	1.7
558.714	1.73
559.057	1.73
559.399	1.74
559.742	1.75
560.084	1.76
560.427	1.71
560.769	1.72
561.111	1.8
561.453	1.84
561.796	1.86
562.138	1.93
562.48	1.95
562.822	1.99
563.164	1.98
563.506	2.08
563.848	2.15
564.19	2.25
564.532	2.34
564.874	2.42
565.215	2.39
565.557	2.39
565.899	2.46
566.24	2.41
566.582	2.4
566.924	2.44
567.265	2.48
567.606	2.51
567.948	2.6
568.289	2.63
568.631	2.71
568.972	2.82
569.313	2.87
569.654	2.86
569.995	3.03
570.336	3.12
570.677	3.12
571.018	3.16
571.359	3.26
571.7	3.25
572.041	3.29
572.382	3.34
572.723	3.43
573.064	3.5
573.404	3.67
573.745	3.73
574.085	3.87
574.426	3.94
574.766	3.96
575.107	4
575.447	4.01
575.788	4.08
576.128	4.15
576.468	4.35
576.808	4.46
577.149	4.62
577.489	4.62
577.829	4.75
578.169	4.82
578.509	4.92
578.849	5.02
579.189	5.17
579.529	5.24
579.868	5.35
580.208	5.49
580.548	5.59
580.887	5.76
581.227	5.84
581.567	5.78
581.906	5.85
582.246	6.01
582.585	6.07
582.925	6.16
583.264	6.28
583.603	6.41
583.942	6.43
584.282	6.61
584.621	6.75
584.96	6.87
585.299	6.94
585.638	7.04
585.977	7.14
586.316	7.31
586.655	7.55
586.994	7.77
587.332	7.97
587.671	8.03
588.01	8.08
588.348	8.15
588.687	8.24
589.026	8.35
589.364	8.42
589.703	8.63
590.041	8.74
590.379	8.86
590.718	8.96
591.056	9.16
591.394	9.29
591.732	9.38
592.07	9.56
592.409	9.69
592.747	9.78
593.085	9.88
593.423	10.01
593.76	10.05
594.098	10.19
594.436	10.33
594.774	10.52
595.112	10.77
595.449	10.89
595.787	11.07
596.124	11.26
596.462	11.34
596.799	11.38
597.137	11.54
597.474	11.62
597.812	11.77
598.149	11.94
598.486	12.13
598.823	12.28
599.16	12.48
599.498	12.64
599.835	12.8
600.172	13.05
600.509	13.27
600.845	13.42
601.182	13.53
601.519	13.7
601.856	13.77
602.193	13.83
602.529	13.96
602.866	14.14
603.202	14.24
603.539	14.31
603.875	14.43
604.212	14.57
604.548	14.74
604.885	14.89
605.221	15.14
605.557	15.41
605.893	15.6
606.23	15.82
606.566	16.04
606.902	16.19
607.238	16.31
607.574	16.45
607.91	16.56
608.245	16.73
608.581	16.95
608.917	16.97
609.253	17.05
609.588	17.19
609.924	17.33
610.26	17.45
610.595	17.83
610.931	18.17
611.266	18.4
611.601	18.6
611.937	18.79
612.272	18.8
612.607	18.94
612.942	19.03
613.278	19.08
613.613	19.13
613.948	19.39
614.283	19.48
614.618	19.7
614.953	19.92
615.287	20.16
615.622	20.25
615.957	20.51
616.292	20.7
616.626	20.89
616.961	21.08
617.295	21.2
617.63	21.23
617.964	21.42
618.299	21.62
618.633	21.77
618.968	21.98
619.302	22.21
619.636	22.4
619.97	22.54
620.304	22.67
620.638	22.96
620.972	23.16
621.306	23.32
621.64	23.45
621.974	23.56
622.308	23.6
622.642	23.57
622.976	23.56
623.309	23.85
623.643	24.06
623.977	24.21
624.31	24.49
624.644	24.73
624.977	24.71
625.31	24.88
625.644	25.03
625.977	25.09
626.31	25.17
626.643	25.33
626.977	25.46
627.31	25.61
627.643	25.98
627.976	26.21
628.309	26.34
628.642	26.51
628.974	26.68
629.307	26.76
629.64	26.92
629.973	27.12
630.305	27.31
630.638	27.46
630.971	27.66
631.303	27.91
631.636	28.15
631.968	28.38
632.3	28.5
632.633	28.67
632.965	28.72
633.297	28.81
633.629	28.91
633.961	29.13
634.293	29.24
634.625	29.36
634.957	29.77
635.289	29.98
635.621	30.25
635.953	30.4
636.285	30.63
636.617	30.56
636.948	30.81
637.28	30.89
637.611	31.05
637.943	31.19
638.274	31.41
638.606	31.55
638.937	31.93
639.269	32.03
639.6	32.2
639.931	32.33
640.262	32.37
640.593	32.4
640.924	32.58
641.255	32.7
641.586	32.94
641.917	33.32
642.248	33.5
642.579	33.63
642.91	33.85
643.24	34
643.571	33.95
643.902	34.06
644.232	34.27
644.563	34.5
644.893	34.72
645.224	34.85
645.554	35.05
645.884	35.12
646.215	35.18
646.545	35.21
646.875	35.46
647.205	35.62
647.535	36.02
647.865	36.47
648.195	36.69
648.525	36.88
648.855	36.99
649.185	37.04
649.515	37.1
649.844	37.27
650.174	37.32
650.504	37.23
650.833	37.38
651.163	37.4
651.492	37.6
651.822	37.93
652.151	38.25
652.48	38.36
652.81	38.55
653.139	38.62
653.468	38.6
653.797	38.79
654.126	39.05
654.455	39.11
654.784	39.27
655.113	39.44
655.442	39.64
655.771	39.78
656.099	39.99
656.428	40.14
656.757	40.16
657.085	40.37
657.414	40.4
657.742	40.48
658.071	40.57
658.399	40.76
658.728	40.6
659.056	40.56
659.384	40.55
659.712	40.65
660.04	40.78
660.369	41.24
660.697	41.57
661.025	41.92
661.353	42.06
661.68	42.25
662.008	42.18
662.336	42.21
662.664	42.28
662.991	42.61
663.319	42.59
663.647	42.77
663.974	42.86
664.302	42.94
664.629	43.18
664.956	43.45
665.284	43.54
665.611	43.87
665.938	43.96
666.265	43.88
666.593	43.99
666.92	44.09
667.247	44.26
667.574	44.62
667.9	44.89
668.227	44.9
668.554	44.89
668.881	44.96
669.208	44.91
669.534	44.83
669.861	44.84
670.187	45.01
670.514	44.82
670.84	45.07
671.167	45.37
671.493	45.76
671.819	45.9
672.146	46.41
672.472	46.39
672.798	46.12
673.124	46.02
673.45	46.18
673.776	45.95
674.102	46.18
674.428	46.6
674.754	47.02
675.079	47
675.405	47.2
675.731	47.24
676.056	47.21
676.382	47.07
676.707	46.97
