Data from Lg-i1_Reflection_15-51-28-390.txt Node
Date: Tue Aug 16 15:51:28 CEST 2022
User: IDIV
Spectrometer: FLMS14958
Trigger mode: 0
Integration Time (sec): 1.000000E-1
Scans to average: 10
Electric dark correction enabled: true
Nonlinearity correction enabled: true
Boxcar width: 2
XAxis mode: Wavelengths
Number of Pixels in Spectrum: 2048
>>>>>Begin Spectral Data<<<<<
179.491	-31.57
179.869	-26.24
180.247	-26.25
180.625	-4.01
181.003	75.91
181.381	123.26
181.759	-449.16
182.136	40.57
182.514	73.23
182.892	93.38
183.27	55.82
183.647	46.83
184.025	-64.84
184.403	-21.75
184.78	454.27
185.158	84.45
185.536	51.3
185.913	298.16
186.291	466.85
186.668	59.16
187.046	-11.08
187.423	-12.93
187.801	-23.83
188.178	5.69
188.556	11.09
188.933	25.63
189.31	24.99
189.688	31.92
190.065	16.99
190.442	8.65
190.82	3.63
191.197	8.31
191.574	8.58
191.951	6.89
192.329	7.46
192.706	7.22
193.083	2.42
193.46	-4.4
193.837	3.97
194.214	13.23
194.591	3.05
194.968	2.17
195.345	0.29
195.722	4.96
196.099	1.77
196.476	9.98
196.853	10.78
197.23	16.88
197.607	16.58
197.984	18.29
198.36	16.95
198.737	20.78
199.114	19.04
199.491	20.92
199.867	16.2
200.244	20.39
200.621	14.42
200.997	13.16
201.374	6.62
201.75	11.27
202.127	7.66
202.504	14.77
202.88	18.32
203.257	20.18
203.633	14.78
204.01	23.7
204.386	24.68
204.762	22.59
205.139	22.53
205.515	21.97
205.891	10.24
206.268	12.54
206.644	22.67
207.02	23.76
207.396	19.5
207.773	17.01
208.149	11.41
208.525	7.83
208.901	4.93
209.277	10.02
209.653	9.71
210.029	21.3
210.405	18.52
210.781	25.61
211.157	27.33
211.533	37.61
211.909	31.95
212.285	27.9
212.661	15.43
213.037	16.13
213.413	11.1
213.789	10.22
214.164	7.85
214.54	9.66
214.916	12.1
215.292	5.32
215.667	2.73
216.043	-0.49
216.419	6.02
216.794	-4.2
217.17	-2.45
217.545	-0.49
217.921	7.75
218.296	9.49
218.672	9.13
219.047	17.26
219.423	19.17
219.798	25.59
220.174	21.66
220.549	27.7
220.924	22.63
221.3	16.57
221.675	6.8
222.05	-0.98
222.425	-1.61
222.801	-0.05
223.176	2.33
223.551	5.76
223.926	11.46
224.301	12.12
224.676	16.22
225.051	16.29
225.426	9.94
225.801	6.83
226.176	5.91
226.551	2.83
226.926	-0.72
227.301	5.89
227.676	8.24
228.051	7.37
228.426	3.71
228.801	4.14
229.175	2.46
229.55	3.29
229.925	2.89
230.3	3.7
230.674	4.1
231.049	3.82
231.424	1.99
231.798	2.66
232.173	3.58
232.547	2.79
232.922	4.05
233.296	3.56
233.671	2.41
234.045	1.96
234.42	3.24
234.794	2.87
235.168	3.81
235.543	4.12
235.917	3.05
236.291	2.74
236.666	2.4
237.04	2.34
237.414	1.96
237.788	3.29
238.162	3.88
238.537	3.78
238.911	3.5
239.285	4.15
239.659	3.34
240.033	2.75
240.407	1.95
240.781	1.59
241.155	1.32
241.529	1.23
241.903	0.87
242.277	1.08
242.65	1.33
243.024	1.28
243.398	1.17
243.772	1.29
244.146	1.43
244.519	1.45
244.893	0.97
245.267	1.09
245.64	1.15
246.014	0.82
246.387	0.22
246.761	0.5
247.135	0.48
247.508	0.38
247.882	0.54
248.255	0.75
248.628	0.75
249.002	0.74
249.375	1
249.749	1.02
250.122	1.02
250.495	1.17
250.868	1.28
251.242	1.37
251.615	1.21
251.988	1.29
252.361	1.19
252.734	1.08
253.107	0.67
253.481	0.74
253.854	0.72
254.227	0.45
254.6	0.7
254.973	0.75
255.346	0.65
255.718	0.52
256.091	0.73
256.464	0.31
256.837	0.79
257.21	1.38
257.583	1.15
257.955	1.11
258.328	1.44
258.701	0.91
259.074	0.63
259.446	0.8
259.819	0.74
260.191	0.46
260.564	0.51
260.936	0.48
261.309	0.37
261.681	0.37
262.054	0.62
262.426	0.72
262.799	0.48
263.171	0.42
263.543	0.61
263.916	0.44
264.288	0.48
264.66	0.5
265.033	0.67
265.405	0.63
265.777	0.51
266.149	0.49
266.521	0.76
266.893	0.62
267.265	0.43
267.637	0.47
268.009	0.57
268.381	0.58
268.753	0.91
269.125	0.86
269.497	0.89
269.869	0.78
270.241	0.78
270.613	0.77
270.985	0.9
271.356	0.82
271.728	0.65
272.1	0.72
272.471	0.7
272.843	0.57
273.215	0.54
273.586	0.43
273.958	0.17
274.329	-0.19
274.701	0.02
275.072	0.24
275.444	0.56
275.815	0.66
276.187	0.82
276.558	0.81
276.929	0.85
277.301	0.87
277.672	0.89
278.043	0.91
278.415	0.76
278.786	0.65
279.157	0.35
279.528	0.3
279.899	0.33
280.27	0.29
280.641	0.27
281.012	0.55
281.383	0.8
281.754	0.76
282.125	0.72
282.496	0.82
282.867	0.69
283.238	0.42
283.609	0.36
283.98	0.62
284.35	0.39
284.721	0.52
285.092	0.73
285.462	0.71
285.833	0.49
286.204	0.66
286.574	0.51
286.945	0.55
287.315	0.73
287.686	0.86
288.056	0.81
288.427	0.94
288.797	0.72
289.168	0.58
289.538	0.41
289.908	0.45
290.279	0.37
290.649	0.47
291.019	0.65
291.39	0.77
291.76	0.66
292.13	0.81
292.5	0.89
292.87	0.65
293.24	0.67
293.61	0.72
293.98	0.46
294.35	0.43
294.72	0.63
295.09	0.5
295.46	0.53
295.83	0.67
296.2	0.59
296.57	0.25
296.939	0.37
297.309	0.36
297.679	0.43
298.049	0.42
298.418	0.7
298.788	0.7
299.158	0.82
299.527	0.79
299.897	0.78
300.266	0.74
300.636	0.74
301.005	0.75
301.375	0.73
301.744	0.88
302.113	0.8
302.483	0.84
302.852	0.98
303.221	1.16
303.591	1.1
303.96	1.02
304.329	0.96
304.698	0.89
305.067	0.79
305.436	0.68
305.806	0.96
306.175	1.08
306.544	0.96
306.913	0.9
307.282	0.98
307.65	0.62
308.019	0.38
308.388	0.29
308.757	0.02
309.126	0.2
309.495	0.41
309.863	0.68
310.232	0.75
310.601	0.96
310.969	0.81
311.338	0.79
311.707	0.68
312.075	0.56
312.444	0.73
312.812	0.85
313.181	0.66
313.549	0.68
313.918	0.92
314.286	0.88
314.654	0.81
315.023	1.11
315.391	0.95
315.759	0.87
316.127	0.64
316.496	0.55
316.864	0.72
317.232	0.58
317.6	0.72
317.968	1.04
318.336	1.07
318.704	0.93
319.072	1.15
319.44	1.07
319.808	0.9
320.176	0.88
320.544	0.84
320.912	0.74
321.28	0.78
321.647	0.77
322.015	1.08
322.383	1.17
322.75	1.21
323.118	1.09
323.486	1.04
323.853	0.6
324.221	0.46
324.588	0.43
324.956	0.37
325.323	0.46
325.691	0.67
326.058	0.67
326.426	0.69
326.793	0.76
327.16	0.74
327.528	0.76
327.895	0.81
328.262	0.85
328.629	0.69
328.996	0.75
329.363	0.67
329.731	0.74
330.098	0.87
330.465	0.92
330.832	0.53
331.199	0.57
331.566	0.24
331.932	0
332.299	0.03
332.666	0.23
333.033	0.33
333.4	0.52
333.766	0.4
334.133	0.6
334.5	0.52
334.867	0.35
335.233	0.42
335.6	0.68
335.966	0.67
336.333	0.76
336.699	0.79
337.066	0.75
337.432	0.77
337.799	0.75
338.165	0.97
338.531	1.1
338.898	0.96
339.264	0.88
339.63	0.88
339.996	0.76
340.363	0.41
340.729	0.49
341.095	0.59
341.461	0.49
341.827	0.49
342.193	0.8
342.559	0.98
342.925	1.04
343.291	0.98
343.657	1.08
344.023	1.08
344.388	0.81
344.754	0.5
345.12	0.62
345.486	0.5
345.851	0.57
346.217	0.84
346.583	1.27
346.948	1.44
347.314	1.38
347.679	1.11
348.045	0.96
348.41	0.61
348.776	0.32
349.141	0.28
349.507	0.34
349.872	0.22
350.237	0.31
350.603	0.43
350.968	0.44
351.333	0.55
351.698	0.5
352.063	0.42
352.428	0.24
352.794	0.32
353.159	0.14
353.524	0.2
353.889	0.3
354.254	0.31
354.618	0.44
354.983	0.52
355.348	0.59
355.713	0.66
356.078	0.7
356.443	0.55
356.807	0.61
357.172	0.42
357.537	0.33
357.901	0.39
358.266	0.36
358.63	0.45
358.995	0.61
359.359	0.57
359.724	0.41
360.088	0.43
360.453	0.36
360.817	0.37
361.181	0.4
361.546	0.42
361.91	0.5
362.274	0.38
362.638	0.45
363.003	0.57
363.367	0.7
363.731	0.66
364.095	0.69
364.459	0.78
364.823	0.66
365.187	0.63
365.551	0.64
365.915	0.53
366.279	0.4
366.642	0.29
367.006	0.46
367.37	0.48
367.734	0.6
368.097	0.61
368.461	0.76
368.825	0.54
369.188	0.39
369.552	0.42
369.915	0.47
370.279	0.46
370.642	0.41
371.006	0.4
371.369	0.47
371.732	0.5
372.096	0.6
372.459	0.65
372.822	0.78
373.186	0.67
373.549	0.54
373.912	0.46
374.275	0.3
374.638	0.33
375.001	0.48
375.364	0.59
375.727	0.63
376.09	0.86
376.453	0.86
376.816	0.92
377.179	0.85
377.542	0.85
377.904	0.82
378.267	0.75
378.63	0.63
378.993	0.7
379.355	0.58
379.718	0.49
380.08	0.57
380.443	0.61
380.806	0.47
381.168	0.48
381.53	0.68
381.893	0.66
382.255	0.66
382.618	0.73
382.98	0.63
383.342	0.41
383.704	0.41
384.067	0.38
384.429	0.28
384.791	0.32
385.153	0.29
385.515	0.34
385.877	0.3
386.239	0.33
386.601	0.43
386.963	0.49
387.325	0.38
387.687	0.38
388.049	0.45
388.41	0.34
388.772	0.25
389.134	0.32
389.496	0.32
389.857	0.27
390.219	0.35
390.58	0.49
390.942	0.47
391.303	0.55
391.665	0.51
392.026	0.37
392.388	0.32
392.749	0.36
393.111	0.4
393.472	0.42
393.833	0.52
394.194	0.58
394.556	0.53
394.917	0.47
395.278	0.55
395.639	0.54
396	0.57
396.361	0.54
396.722	0.47
397.083	0.39
397.444	0.5
397.805	0.32
398.166	0.39
398.526	0.36
398.887	0.37
399.248	0.36
399.609	0.42
399.969	0.4
400.33	0.43
400.691	0.51
401.051	0.47
401.412	0.52
401.772	0.47
402.133	0.49
402.493	0.42
402.853	0.39
403.214	0.35
403.574	0.36
403.934	0.44
404.295	0.53
404.655	0.61
405.015	0.63
405.375	0.6
405.735	0.57
406.095	0.44
406.455	0.43
406.815	0.44
407.175	0.52
407.535	0.5
407.895	0.51
408.255	0.46
408.615	0.44
408.975	0.5
409.334	0.48
409.694	0.6
410.054	0.63
410.413	0.71
410.773	0.75
411.133	0.77
411.492	0.74
411.852	0.77
412.211	0.78
412.571	0.71
412.93	0.83
413.289	0.82
413.649	0.81
414.008	0.8
414.367	0.78
414.726	0.6
415.086	0.55
415.445	0.61
415.804	0.48
416.163	0.5
416.522	0.63
416.881	0.7
417.24	0.71
417.599	0.81
417.958	0.72
418.316	0.61
418.675	0.59
419.034	0.52
419.393	0.43
419.751	0.43
420.11	0.46
420.469	0.43
420.827	0.42
421.186	0.47
421.544	0.52
421.903	0.52
422.261	0.55
422.62	0.57
422.978	0.57
423.336	0.57
423.695	0.54
424.053	0.57
424.411	0.56
424.769	0.54
425.128	0.55
425.486	0.58
425.844	0.54
426.202	0.54
426.56	0.58
426.918	0.59
427.276	0.66
427.634	0.73
427.991	0.73
428.349	0.7
428.707	0.69
429.065	0.69
429.423	0.63
429.78	0.69
430.138	0.75
430.495	0.7
430.853	0.66
431.211	0.62
431.568	0.68
431.925	0.65
432.283	0.74
432.64	0.74
432.998	0.74
433.355	0.62
433.712	0.63
434.069	0.54
434.427	0.52
434.784	0.55
435.141	0.58
435.498	0.62
435.855	0.68
436.212	0.73
436.569	0.81
436.926	0.8
437.283	0.7
437.64	0.69
437.996	0.66
438.353	0.63
438.71	0.63
439.067	0.69
439.423	0.67
439.78	0.65
440.137	0.61
440.493	0.67
440.85	0.62
441.206	0.65
441.563	0.69
441.919	0.71
442.275	0.68
442.632	0.68
442.988	0.65
443.344	0.61
443.7	0.53
444.057	0.55
444.413	0.55
444.769	0.59
445.125	0.59
445.481	0.61
445.837	0.58
446.193	0.57
446.549	0.55
446.905	0.56
447.26	0.57
447.616	0.6
447.972	0.63
448.328	0.64
448.683	0.6
449.039	0.65
449.395	0.6
449.75	0.62
450.106	0.61
450.461	0.68
450.817	0.71
451.172	0.82
451.527	0.83
451.883	0.9
452.238	0.91
452.593	0.84
452.949	0.74
453.304	0.71
453.659	0.64
454.014	0.64
454.369	0.65
454.724	0.73
455.079	0.76
455.434	0.78
455.789	0.75
456.144	0.69
456.499	0.65
456.853	0.63
457.208	0.62
457.563	0.58
457.918	0.6
458.272	0.6
458.627	0.56
458.981	0.53
459.336	0.54
459.69	0.52
460.045	0.54
460.399	0.52
460.754	0.54
461.108	0.6
461.462	0.68
461.817	0.7
462.171	0.76
462.525	0.79
462.879	0.79
463.233	0.7
463.587	0.63
463.941	0.61
464.295	0.58
464.649	0.51
465.003	0.48
465.357	0.52
465.711	0.58
466.065	0.57
466.418	0.56
466.772	0.67
467.126	0.7
467.479	0.69
467.833	0.66
468.186	0.68
468.54	0.59
468.893	0.6
469.247	0.62
469.6	0.7
469.954	0.74
470.307	0.75
470.66	0.7
471.013	0.68
471.367	0.67
471.72	0.67
472.073	0.74
472.426	0.8
472.779	0.84
473.132	0.8
473.485	0.84
473.838	0.8
474.191	0.72
474.544	0.69
474.896	0.73
475.249	0.68
475.602	0.69
475.955	0.65
476.307	0.64
476.66	0.61
477.012	0.61
477.365	0.61
477.717	0.68
478.07	0.67
478.422	0.66
478.775	0.67
479.127	0.7
479.479	0.71
479.831	0.7
480.184	0.73
480.536	0.72
480.888	0.68
481.24	0.66
481.592	0.65
481.944	0.65
482.296	0.61
482.648	0.61
483	0.58
483.352	0.57
483.703	0.57
484.055	0.58
484.407	0.59
484.759	0.6
485.11	0.63
485.462	0.64
485.813	0.64
486.165	0.64
486.516	0.65
486.868	0.61
487.219	0.6
487.571	0.58
487.922	0.59
488.273	0.57
488.624	0.57
488.976	0.59
489.327	0.62
489.678	0.63
490.029	0.68
490.38	0.71
490.731	0.68
491.082	0.68
491.433	0.67
491.784	0.64
492.135	0.63
492.485	0.63
492.836	0.62
493.187	0.62
493.537	0.64
493.888	0.65
494.239	0.64
494.589	0.65
494.94	0.63
495.29	0.66
495.641	0.67
495.991	0.73
496.341	0.71
496.692	0.78
497.042	0.72
497.392	0.71
497.742	0.68
498.092	0.7
498.442	0.64
498.793	0.64
499.143	0.66
499.493	0.7
499.842	0.71
500.192	0.71
500.542	0.72
500.892	0.72
501.242	0.67
501.591	0.65
501.941	0.63
502.291	0.62
502.64	0.64
502.99	0.66
503.339	0.65
503.689	0.72
504.038	0.76
504.388	0.71
504.737	0.74
505.086	0.76
505.436	0.76
505.785	0.72
506.134	0.74
506.483	0.71
506.832	0.7
507.181	0.65
507.53	0.68
507.879	0.64
508.228	0.64
508.577	0.65
508.926	0.68
509.275	0.66
509.624	0.65
509.972	0.64
510.321	0.62
510.67	0.61
511.018	0.64
511.367	0.69
511.715	0.65
512.064	0.67
512.412	0.62
512.761	0.59
513.109	0.53
513.457	0.57
513.806	0.54
514.154	0.55
514.502	0.54
514.85	0.55
515.198	0.56
515.546	0.58
515.894	0.59
516.242	0.59
516.59	0.64
516.938	0.65
517.286	0.69
517.634	0.71
517.981	0.71
518.329	0.67
518.677	0.66
519.024	0.62
519.372	0.61
519.72	0.64
520.067	0.63
520.415	0.66
520.762	0.71
521.109	0.74
521.457	0.74
521.804	0.8
522.151	0.79
522.498	0.76
522.846	0.7
523.193	0.7
523.54	0.67
523.887	0.65
524.234	0.69
524.581	0.75
524.928	0.74
525.275	0.74
525.621	0.76
525.968	0.72
526.315	0.69
526.662	0.69
527.008	0.62
527.355	0.6
527.701	0.63
528.048	0.61
528.394	0.59
528.741	0.61
529.087	0.6
529.434	0.58
529.78	0.61
530.126	0.62
530.472	0.64
530.819	0.64
531.165	0.63
531.511	0.6
531.857	0.6
532.203	0.59
532.549	0.6
532.895	0.6
533.241	0.59
533.586	0.59
533.932	0.6
534.278	0.6
534.624	0.64
534.969	0.7
535.315	0.7
535.661	0.71
536.006	0.73
536.352	0.74
536.697	0.71
537.042	0.72
537.388	0.72
537.733	0.73
538.078	0.7
538.424	0.7
538.769	0.69
539.114	0.71
539.459	0.7
539.804	0.7
540.149	0.72
540.494	0.73
540.839	0.71
541.184	0.69
541.529	0.69
541.873	0.69
542.218	0.7
542.563	0.7
542.908	0.7
543.252	0.7
543.597	0.71
543.941	0.67
544.286	0.69
544.63	0.72
544.975	0.75
545.319	0.74
545.663	0.75
546.007	0.78
546.352	0.76
546.696	0.76
547.04	0.75
547.384	0.77
547.728	0.75
548.072	0.72
548.416	0.7
548.76	0.74
549.104	0.76
549.448	0.77
549.791	0.83
550.135	0.86
550.479	0.89
550.823	0.96
551.166	0.92
551.51	0.99
551.853	0.98
552.197	0.95
552.54	0.92
552.883	0.94
553.227	0.92
553.57	0.91
553.913	0.93
554.257	0.92
554.6	0.94
554.943	0.92
555.286	0.95
555.629	0.91
555.972	0.93
556.315	0.98
556.658	1.03
557.001	1.04
557.343	1.09
557.686	1.06
558.029	1.01
558.371	0.96
558.714	0.95
559.057	0.93
559.399	0.93
559.742	0.99
560.084	1.03
560.427	1.02
560.769	1.07
561.111	1.14
561.453	1.16
561.796	1.24
562.138	1.29
562.48	1.35
562.822	1.38
563.164	1.36
563.506	1.41
563.848	1.49
564.19	1.48
564.532	1.49
564.874	1.56
565.215	1.55
565.557	1.5
565.899	1.6
566.24	1.58
566.582	1.54
566.924	1.61
567.265	1.65
567.606	1.63
567.948	1.75
568.289	1.85
568.631	1.87
568.972	1.94
569.313	2.02
569.654	1.94
569.995	1.98
570.336	2
570.677	2.15
571.018	2.13
571.359	2.25
571.7	2.27
572.041	2.32
572.382	2.27
572.723	2.36
573.064	2.42
573.404	2.51
573.745	2.59
574.085	2.68
574.426	2.78
574.766	2.78
575.107	2.85
575.447	2.87
575.788	2.93
576.128	2.97
576.468	3.13
576.808	3.18
577.149	3.31
577.489	3.35
577.829	3.41
578.169	3.42
578.509	3.48
578.849	3.48
579.189	3.59
579.529	3.64
579.868	3.76
580.208	3.93
580.548	4.05
580.887	4.14
581.227	4.16
581.567	4.17
581.906	4.21
582.246	4.32
582.585	4.38
582.925	4.58
583.264	4.66
583.603	4.74
583.942	4.81
584.282	4.98
584.621	5.04
584.96	5.11
585.299	5.21
585.638	5.33
585.977	5.36
586.316	5.51
586.655	5.69
586.994	5.85
587.332	5.95
587.671	6.05
588.01	6.05
588.348	6.07
588.687	6.08
589.026	6.21
589.364	6.29
589.703	6.48
590.041	6.68
590.379	6.82
590.718	6.97
591.056	7.1
591.394	7.29
591.732	7.33
592.07	7.49
592.409	7.5
592.747	7.65
593.085	7.63
593.423	7.8
593.76	7.83
594.098	7.96
594.436	8.09
594.774	8.31
595.112	8.46
595.449	8.51
595.787	8.7
596.124	8.8
596.462	8.87
596.799	8.96
597.137	9.13
597.474	9.21
597.812	9.4
598.149	9.55
598.486	9.69
598.823	9.84
599.16	10.04
599.498	10.01
599.835	10.13
600.172	10.33
600.509	10.5
600.845	10.6
601.182	10.84
601.519	11
601.856	11.07
602.193	11.21
602.529	11.29
602.866	11.36
603.202	11.35
603.539	11.48
603.875	11.66
604.212	11.77
604.548	11.95
604.885	12.07
605.221	12.19
605.557	12.29
605.893	12.5
606.23	12.71
606.566	13.01
606.902	13.26
607.238	13.41
607.574	13.53
607.91	13.59
608.245	13.68
608.581	13.79
608.917	13.85
609.253	13.94
609.588	14.1
609.924	14.21
610.26	14.31
610.595	14.58
610.931	14.81
611.266	15.04
611.601	15.25
611.937	15.38
612.272	15.43
612.607	15.62
612.942	15.72
613.278	15.84
613.613	16
613.948	16.32
614.283	16.35
614.618	16.52
614.953	16.67
615.287	16.84
615.622	16.82
615.957	17.14
616.292	17.21
616.626	17.35
616.961	17.54
617.295	17.73
617.63	17.7
617.964	17.94
618.299	18.14
618.633	18.25
618.968	18.37
619.302	18.62
619.636	18.75
619.97	18.84
620.304	18.98
620.638	19.22
620.972	19.32
621.306	19.49
621.64	19.7
621.974	19.86
622.308	19.93
622.642	20.02
622.976	20.16
623.309	20.4
623.643	20.63
623.977	20.77
624.31	20.96
624.644	21.01
624.977	21.14
625.31	21.17
625.644	21.33
625.977	21.48
626.31	21.6
626.643	21.68
626.977	21.86
627.31	22.02
627.643	22.15
627.976	22.42
628.309	22.59
628.642	22.75
628.974	22.91
629.307	23.07
629.64	23.1
629.973	23.19
630.305	23.39
630.638	23.44
630.971	23.67
631.303	23.92
631.636	24.19
631.968	24.37
632.3	24.76
632.633	24.91
632.965	25.03
633.297	25.09
633.629	25.03
633.961	25.05
634.293	25.2
634.625	25.22
634.957	25.5
635.289	25.73
635.621	25.93
635.953	26.11
636.285	26.28
636.617	26.26
636.948	26.51
637.28	26.64
637.611	26.75
637.943	27.02
638.274	27.36
638.606	27.41
638.937	27.68
639.269	27.76
639.6	27.92
639.931	27.96
640.262	28.14
640.593	28.08
640.924	28.25
641.255	28.18
641.586	28.45
641.917	28.64
642.248	28.78
642.579	29.01
642.91	29.34
643.24	29.4
643.571	29.66
643.902	30.02
644.232	30.18
644.563	30.47
644.893	30.56
645.224	30.54
645.554	30.5
645.884	30.46
646.215	30.38
646.545	30.43
646.875	30.59
647.205	30.8
647.535	31.12
647.865	31.38
648.195	31.63
648.525	31.91
648.855	32.12
649.185	32.28
649.515	32.33
649.844	32.59
650.174	32.71
650.504	32.69
650.833	32.82
651.163	33.1
651.492	33.2
651.822	33.27
652.151	33.39
652.48	33.53
652.81	33.64
653.139	33.69
653.468	33.93
653.797	34.14
654.126	34.26
654.455	34.36
654.784	34.58
655.113	34.77
655.442	35.01
655.771	35.21
656.099	35.25
656.428	35.34
656.757	35.27
657.085	35.36
657.414	35.5
657.742	35.82
658.071	35.79
658.399	35.93
658.728	35.86
659.056	35.8
659.384	35.72
659.712	36.03
660.04	36.21
660.369	36.43
660.697	36.96
661.025	37.26
661.353	37.39
661.68	37.76
662.008	38.01
662.336	37.83
662.664	37.88
662.991	38.12
663.319	37.91
663.647	37.89
663.974	37.89
664.302	38.08
664.629	38.09
664.956	38.18
665.284	38.43
665.611	38.48
665.938	38.59
666.265	38.46
666.593	38.61
666.92	38.72
667.247	39.09
667.574	39.24
667.9	39.7
668.227	39.96
668.554	40.14
668.881	40.16
669.208	40.11
669.534	40
669.861	39.98
670.187	39.79
670.514	40.07
670.84	40.36
671.167	40.68
671.493	40.83
671.819	41.09
672.146	41.21
672.472	41.18
672.798	41.01
673.124	40.95
673.45	41.1
673.776	40.8
674.102	41.02
674.428	41.27
674.754	41.7
675.079	41.68
675.405	41.96
675.731	41.8
676.056	41.78
676.382	41.63
