Data from Main-i2_Reflection_16-57-41-252.txt Node
Date: Tue Aug 16 16:57:41 CEST 2022
User: IDIV
Spectrometer: FLMS14958
Trigger mode: 0
Integration Time (sec): 1.000000E-1
Scans to average: 10
Electric dark correction enabled: true
Nonlinearity correction enabled: true
Boxcar width: 2
XAxis mode: Wavelengths
Number of Pixels in Spectrum: 2048
>>>>>Begin Spectral Data<<<<<
179.491	261.31
179.869	110.61
180.247	90.17
180.625	77.22
181.003	-42.16
181.381	-88.91
181.759	1646.8
182.136	174.62
182.514	-97.18
182.892	348.08
183.27	411.06
183.647	135.84
184.025	246.01
184.403	267.26
184.78	62.48
185.158	37.97
185.536	-15.9
185.913	-915.63
186.291	-22.23
186.668	49.8
187.046	99.91
187.423	265.04
187.801	34.41
188.178	32.55
188.556	24.94
188.933	-3.84
189.31	11.6
189.688	19.75
190.065	21.21
190.442	29.49
190.82	37.69
191.197	36.28
191.574	32.04
191.951	37.34
192.329	-5.72
192.706	-18.1
193.083	-30.33
193.46	-48
193.837	-35.82
194.214	-16.48
194.591	-37.75
194.968	-31.39
195.345	-19.42
195.722	-43.8
196.099	-44.32
196.476	-24.7
196.853	-40.06
197.23	-37.18
197.607	-7.11
197.984	1.13
198.36	11.43
198.737	34.44
199.114	20.93
199.491	20.35
199.867	12.52
200.244	16.5
200.621	9.76
200.997	26.51
201.374	31.67
201.75	46.97
202.127	42.74
202.504	30.99
202.88	26.8
203.257	19.49
203.633	0.73
204.01	-4.59
204.386	11.32
204.762	-4.89
205.139	-17.71
205.515	-13.54
205.891	-2.03
206.268	-20.4
206.644	-9.58
207.02	-2.54
207.396	-13.15
207.773	-21.64
208.149	-21.35
208.525	-19.28
208.901	-17.7
209.277	-8.47
209.653	-11.61
210.029	5.01
210.405	9.28
210.781	11
211.157	-0.26
211.533	11.34
211.909	6.69
212.285	3.93
212.661	8.19
213.037	9.16
213.413	-5.36
213.789	-15.92
214.164	-10.65
214.54	-9.07
214.916	8.09
215.292	16.78
215.667	21.76
216.043	8.25
216.419	0.18
216.794	-8.56
217.17	-14.53
217.545	-29.18
217.921	-8.5
218.296	3.95
218.672	-1.47
219.047	-4.55
219.423	7.42
219.798	-9.62
220.174	-9.78
220.549	-1.5
220.924	-5.32
221.3	-2.55
221.675	0.37
222.05	0.52
222.425	7.32
222.801	12.79
223.176	8.07
223.551	12.56
223.926	11.93
224.301	-10.14
224.676	-6
225.051	-0.45
225.426	-2.79
225.801	0.11
226.176	8.36
226.551	5.46
226.926	8.51
227.301	10.14
227.676	6.26
228.051	6.6
228.426	3.46
228.801	-1.23
229.175	-0.94
229.55	0.51
229.925	1.33
230.3	2.45
230.674	4.65
231.049	5.42
231.424	3.88
231.798	3.12
232.173	4.62
232.547	5.3
232.922	5.49
233.296	7.02
233.671	6.81
234.045	6.35
234.42	4.74
234.794	7.08
235.168	3.66
235.543	3.03
235.917	3.09
236.291	3.36
236.666	1.42
237.04	4.8
237.414	6.37
237.788	4.63
238.162	5.01
238.537	3.83
238.911	3.59
239.285	3.46
239.659	3.59
240.033	4.24
240.407	4.1
240.781	4.65
241.155	4.33
241.529	4.4
241.903	3.65
242.277	3.68
242.65	3.18
243.024	2.83
243.398	2.69
243.772	2.82
244.146	3.09
244.519	3.07
244.893	3.16
245.267	3.29
245.64	3.53
246.014	3.2
246.387	3.59
246.761	3.48
247.135	3.3
247.508	3.37
247.882	3.43
248.255	3.36
248.628	3.3
249.002	3.47
249.375	3.36
249.749	3.09
250.122	3.22
250.495	3.92
250.868	4.34
251.242	3.97
251.615	4.2
251.988	4.1
252.361	3.42
252.734	3.21
253.107	3.53
253.481	3.76
253.854	3.55
254.227	3.54
254.6	3.64
254.973	3.48
255.346	2.98
255.718	2.93
256.091	3.05
256.464	2.47
256.837	2.09
257.21	2.15
257.583	1.94
257.955	2.1
258.328	2.79
258.701	3.16
259.074	3.24
259.446	3.43
259.819	3.3
260.191	3.27
260.564	3.31
260.936	3.18
261.309	3.09
261.681	3.12
262.054	2.99
262.426	2.95
262.799	3.05
263.171	2.95
263.543	2.78
263.916	2.91
264.288	3.07
264.66	3.48
265.033	4.15
265.405	4.53
265.777	4.68
266.149	4
266.521	3.65
266.893	3.31
267.265	3.27
267.637	2.78
268.009	2.88
268.381	2.91
268.753	2.73
269.125	2.55
269.497	2.87
269.869	2.91
270.241	2.61
270.613	2.78
270.985	2.97
271.356	2.38
271.728	2.64
272.1	2.96
272.471	2.94
272.843	2.88
273.215	3.24
273.586	2.98
273.958	2.97
274.329	3.06
274.701	3.46
275.072	3.46
275.444	3.72
275.815	3.54
276.187	3.23
276.558	2.65
276.929	2.68
277.301	2.56
277.672	2.55
278.043	2.79
278.415	2.71
278.786	2.16
279.157	2.26
279.528	2.37
279.899	2.86
280.27	3.48
280.641	3.8
281.012	3.48
281.383	3.26
281.754	3.29
282.125	2.71
282.496	2.78
282.867	2.9
283.238	3.07
283.609	2.49
283.98	2.58
284.35	2.62
284.721	2.67
285.092	2.59
285.462	2.68
285.833	2.75
286.204	3.02
286.574	3.05
286.945	3.14
287.315	3.15
287.686	3.23
288.056	2.94
288.427	2.86
288.797	2.7
289.168	3.21
289.538	3.24
289.908	3.53
290.279	3.28
290.649	3.42
291.019	2.91
291.39	2.59
291.76	2.38
292.13	2.62
292.5	2.59
292.87	2.72
293.24	2.88
293.61	2.64
293.98	2.75
294.35	2.75
294.72	2.68
295.09	2.83
295.46	3.25
295.83	3.1
296.2	3.24
296.57	3.22
296.939	3.33
297.309	3.07
297.679	3.07
298.049	2.89
298.418	2.86
298.788	2.94
299.158	2.9
299.527	2.8
299.897	2.86
300.266	2.62
300.636	2.47
301.005	2.58
301.375	2.66
301.744	2.84
302.113	2.97
302.483	2.56
302.852	2.37
303.221	2.39
303.591	2.04
303.96	2.3
304.329	2.61
304.698	2.69
305.067	2.63
305.436	2.98
305.806	3.21
306.175	3.13
306.544	3.04
306.913	3.02
307.282	3.15
307.65	2.85
308.019	2.62
308.388	3.01
308.757	3.06
309.126	2.9
309.495	2.86
309.863	2.69
310.232	2.43
310.601	2.62
310.969	2.6
311.338	2.54
311.707	3.28
312.075	3.43
312.444	3.3
312.812	3.33
313.181	3.56
313.549	2.98
313.918	2.83
314.286	3.04
314.654	2.89
315.023	2.76
315.391	3.18
315.759	3.23
316.127	2.88
316.496	2.93
316.864	3.17
317.232	3.14
317.6	3.38
317.968	3.48
318.336	3.32
318.704	3.07
319.072	2.57
319.44	2.43
319.808	2.8
320.176	2.94
320.544	2.75
320.912	2.84
321.28	2.72
321.647	2.34
322.015	2.28
322.383	2.67
322.75	3.07
323.118	2.93
323.486	2.82
323.853	2.74
324.221	2.71
324.588	2.18
324.956	2.06
325.323	2.01
325.691	2.07
326.058	1.85
326.426	2.23
326.793	2.45
327.16	2.48
327.528	2.41
327.895	2.46
328.262	2.42
328.629	2.09
328.996	2.34
329.363	2.6
329.731	2.68
330.098	2.9
330.465	3.12
330.832	3.08
331.199	3.03
331.566	3.12
331.932	2.92
332.299	3.25
332.666	3.08
333.033	3.14
333.4	3.17
333.766	2.9
334.133	2.38
334.5	2.79
334.867	2.53
335.233	2.51
335.6	2.61
335.966	2.71
336.333	2.28
336.699	2.24
337.066	2.23
337.432	2.26
337.799	2.58
338.165	2.87
338.531	2.87
338.898	2.93
339.264	2.99
339.63	2.72
339.996	2.55
340.363	2.54
340.729	2.32
341.095	2.25
341.461	2.27
341.827	1.89
342.193	2.21
342.559	2.29
342.925	2.48
343.291	2.74
343.657	2.92
344.023	2.77
344.388	2.87
344.754	2.48
345.12	2.47
345.486	2.62
345.851	2.54
346.217	2.3
346.583	2.5
346.948	2.04
347.314	1.95
347.679	2.04
348.045	2.39
348.41	2.25
348.776	2.58
349.141	2.76
349.507	2.77
349.872	2.58
350.237	2.79
350.603	2.96
350.968	3.05
351.333	3.24
351.698	3.11
352.063	3
352.428	2.91
352.794	2.83
353.159	2.51
353.524	2.67
353.889	2.6
354.254	2.54
354.618	2.39
354.983	2.26
355.348	2.13
355.713	2.22
356.078	2.17
356.443	2.47
356.807	2.69
357.172	2.6
357.537	2.54
357.901	2.6
358.266	2.72
358.63	2.74
358.995	3.05
359.359	3.05
359.724	3.05
360.088	2.7
360.453	2.74
360.817	2.4
361.181	2.46
361.546	2.46
361.91	2.41
362.274	2.23
362.638	2.38
363.003	2.29
363.367	2.18
363.731	2.22
364.095	2.28
364.459	2.09
364.823	2.15
365.187	2.24
365.551	2.27
365.915	2.35
366.279	2.4
366.642	2.5
367.006	2.31
367.37	2.18
367.734	2.4
368.097	2.56
368.461	2.54
368.825	2.59
369.188	2.72
369.552	2.28
369.915	2.33
370.279	2.38
370.642	2.79
371.006	2.66
371.369	2.8
371.732	2.76
372.096	2.53
372.459	2.22
372.822	2.34
373.186	2.5
373.549	2.45
373.912	2.69
374.275	2.63
374.638	2.84
375.001	2.82
375.364	2.86
375.727	2.73
376.09	3.08
376.453	2.97
376.816	2.87
377.179	2.92
377.542	3.04
377.904	2.74
378.267	2.65
378.63	2.8
378.993	2.9
379.355	2.83
379.718	2.86
380.08	2.67
380.443	2.61
380.806	2.49
381.168	2.63
381.53	2.77
381.893	3.11
382.255	3.1
382.618	2.98
382.98	2.78
383.342	2.81
383.704	2.63
384.067	2.6
384.429	2.78
384.791	2.88
385.153	2.83
385.515	3.01
385.877	3.07
386.239	3.06
386.601	3.13
386.963	3.16
387.325	3.07
387.687	2.96
388.049	3
388.41	2.97
388.772	2.89
389.134	2.87
389.496	2.97
389.857	2.65
390.219	2.67
390.58	2.74
390.942	2.87
391.303	3.01
391.665	3.21
392.026	3.26
392.388	3.31
392.749	3.26
393.111	3.12
393.472	3.08
393.833	3.06
394.194	2.98
394.556	2.93
394.917	2.97
395.278	3.15
395.639	3.23
396	3.31
396.361	3.19
396.722	3.16
397.083	3.07
397.444	2.78
397.805	2.62
398.166	2.79
398.526	2.68
398.887	2.8
399.248	3.1
399.609	3.3
399.969	3.35
400.33	3.5
400.691	3.37
401.051	3.18
401.412	3.11
401.772	2.96
402.133	2.98
402.493	2.99
402.853	3.2
403.214	3.23
403.574	3.37
403.934	3.43
404.295	3.39
404.655	3.26
405.015	3.3
405.375	3.28
405.735	3.19
406.095	3.43
406.455	3.61
406.815	3.72
407.175	3.72
407.535	3.79
407.895	3.7
408.255	3.55
408.615	3.48
408.975	3.49
409.334	3.5
409.694	3.4
410.054	3.39
410.413	3.33
410.773	3.51
411.133	3.51
411.492	3.55
411.852	3.42
412.211	3.46
412.571	3.26
412.93	3.23
413.289	3.19
413.649	3.39
414.008	3.39
414.367	3.49
414.726	3.51
415.086	3.46
415.445	3.49
415.804	3.43
416.163	3.39
416.522	3.28
416.881	3.41
417.24	3.45
417.599	3.51
417.958	3.46
418.316	3.53
418.675	3.5
419.034	3.44
419.393	3.47
419.751	3.5
420.11	3.54
420.469	3.45
420.827	3.48
421.186	3.46
421.544	3.5
421.903	3.52
422.261	3.65
422.62	3.69
422.978	3.74
423.336	3.72
423.695	3.63
424.053	3.57
424.411	3.55
424.769	3.54
425.128	3.55
425.486	3.59
425.844	3.59
426.202	3.61
426.56	3.63
426.918	3.62
427.276	3.63
427.634	3.69
427.991	3.71
428.349	3.66
428.707	3.65
429.065	3.65
429.423	3.69
429.78	3.68
430.138	3.7
430.495	3.76
430.853	3.72
431.211	3.61
431.568	3.52
431.925	3.48
432.283	3.49
432.64	3.58
432.998	3.6
433.355	3.61
433.712	3.64
434.069	3.59
434.427	3.47
434.784	3.4
435.141	3.42
435.498	3.41
435.855	3.5
436.212	3.6
436.569	3.66
436.926	3.7
437.283	3.76
437.64	3.67
437.996	3.71
438.353	3.82
438.71	3.77
439.067	3.75
439.423	3.72
439.78	3.76
440.137	3.72
440.493	3.76
440.85	3.75
441.206	3.79
441.563	3.85
441.919	3.87
442.275	3.92
442.632	3.93
442.988	3.97
443.344	3.84
443.7	3.89
444.057	3.94
444.413	3.95
444.769	4.01
445.125	4.06
445.481	4.08
445.837	4.02
446.193	4.06
446.549	4.01
446.905	4.08
447.26	4.05
447.616	4.11
447.972	4.17
448.328	4.26
448.683	4.24
449.039	4.29
449.395	4.37
449.75	4.36
450.106	4.41
450.461	4.39
450.817	4.29
451.172	4.23
451.527	4.24
451.883	4.19
452.238	4.26
452.593	4.36
452.949	4.4
453.304	4.44
453.659	4.5
454.014	4.57
454.369	4.61
454.724	4.68
455.079	4.63
455.434	4.65
455.789	4.68
456.144	4.74
456.499	4.72
456.853	4.76
457.208	4.78
457.563	4.69
457.918	4.66
458.272	4.62
458.627	4.64
458.981	4.66
459.336	4.68
459.69	4.72
460.045	4.79
460.399	4.81
460.754	4.77
461.108	4.8
461.462	4.84
461.817	4.84
462.171	4.81
462.525	4.92
462.879	4.94
463.233	4.95
463.587	4.83
463.941	4.83
464.295	4.71
464.649	4.75
465.003	4.73
465.357	4.88
465.711	4.95
466.065	5.06
466.418	4.98
466.772	4.94
467.126	4.89
467.479	4.81
467.833	4.72
468.186	4.71
468.54	4.75
468.893	4.75
469.247	4.77
469.6	4.82
469.954	4.88
470.307	4.83
470.66	4.91
471.013	4.94
471.367	4.96
471.72	4.88
472.073	4.94
472.426	4.99
472.779	5.01
473.132	4.9
473.485	4.94
473.838	4.94
474.191	4.89
474.544	4.88
474.896	4.98
475.249	5.01
475.602	4.97
475.955	4.92
476.307	5.02
476.66	4.99
477.012	4.97
477.365	4.97
477.717	5.01
478.07	4.94
478.422	4.99
478.775	4.95
479.127	5
479.479	4.98
479.831	5.02
480.184	5.07
480.536	5.2
480.888	5.23
481.24	5.2
481.592	5.14
481.944	5.15
482.296	5.14
482.648	5.09
483	5.07
483.352	5.07
483.703	5.06
484.055	5.04
484.407	5.05
484.759	5.1
485.11	5.12
485.462	5.15
485.813	5.18
486.165	5.25
486.516	5.25
486.868	5.27
487.219	5.25
487.571	5.26
487.922	5.28
488.273	5.33
488.624	5.35
488.976	5.39
489.327	5.48
489.678	5.51
490.029	5.46
490.38	5.54
490.731	5.58
491.082	5.57
491.433	5.58
491.784	5.65
492.135	5.67
492.485	5.69
492.836	5.74
493.187	5.8
493.537	5.85
493.888	5.9
494.239	5.96
494.589	6.06
494.94	6.14
495.29	6.19
495.641	6.22
495.991	6.23
496.341	6.25
496.692	6.32
497.042	6.42
497.392	6.5
497.742	6.6
498.092	6.67
498.442	6.7
498.793	6.78
499.143	6.86
499.493	6.95
499.842	7.03
500.192	7.24
500.542	7.36
500.892	7.43
501.242	7.62
501.591	7.73
501.941	7.76
502.291	7.65
502.64	7.78
502.99	7.78
503.339	7.91
503.689	8.09
504.038	8.34
504.388	8.46
504.737	8.6
505.086	8.64
505.436	8.68
505.785	8.83
506.134	8.95
506.483	9.11
506.832	9.33
507.181	9.46
507.53	9.55
507.879	9.68
508.228	9.76
508.577	9.92
508.926	10.05
509.275	10.18
509.624	10.29
509.972	10.46
510.321	10.56
510.67	10.67
511.018	10.81
511.367	10.93
511.715	11.04
512.064	11.14
512.412	11.29
512.761	11.39
513.109	11.57
513.457	11.68
513.806	11.81
514.154	11.93
514.502	12.12
514.85	12.3
515.198	12.46
515.546	12.73
515.894	13
516.242	13.15
516.59	13.25
516.938	13.48
517.286	13.58
517.634	13.63
517.981	13.75
518.329	13.91
518.677	14.06
519.024	14.19
519.372	14.31
519.72	14.54
520.067	14.71
520.415	14.77
520.762	14.94
521.109	15.11
521.457	15.18
521.804	15.26
522.151	15.37
522.498	15.5
522.846	15.57
523.193	15.79
523.54	15.95
523.887	16.12
524.234	16.18
524.581	16.35
524.928	16.35
525.275	16.5
525.621	16.65
525.968	16.77
526.315	16.88
526.662	17.02
527.008	17.04
527.355	17.15
527.701	17.25
528.048	17.29
528.394	17.33
528.741	17.43
529.087	17.46
529.434	17.5
529.78	17.59
530.126	17.66
530.472	17.74
530.819	17.79
531.165	17.91
531.511	17.93
531.857	18.02
532.203	18.04
532.549	18.08
532.895	18.08
533.241	18.14
533.586	18.18
533.932	18.22
534.278	18.23
534.624	18.29
534.969	18.42
535.315	18.45
535.661	18.53
536.006	18.66
536.352	18.69
536.697	18.67
537.042	18.69
537.388	18.71
537.733	18.71
538.078	18.75
538.424	18.81
538.769	18.83
539.114	18.87
539.459	18.87
539.804	18.9
540.149	18.79
540.494	18.8
540.839	18.8
541.184	18.8
541.529	18.75
541.873	18.79
542.218	18.85
542.563	18.86
542.908	18.91
543.252	19.01
543.597	19.03
543.941	19.03
544.286	18.97
544.63	18.94
544.975	18.85
545.319	18.85
545.663	18.77
546.007	18.83
546.352	18.85
546.696	18.93
547.04	18.88
547.384	18.98
547.728	19.03
548.072	19.05
548.416	19.11
548.76	19.22
549.104	19.24
549.448	19.24
549.791	19.48
550.135	19.45
550.479	19.53
550.823	19.55
551.166	19.64
551.51	19.5
551.853	19.48
552.197	19.47
552.54	19.46
552.883	19.39
553.227	19.46
553.57	19.58
553.913	19.57
554.257	19.63
554.6	19.65
554.943	19.61
555.286	19.52
555.629	19.44
555.972	19.4
556.315	19.47
556.658	19.48
557.001	19.39
557.343	19.33
557.686	19.32
558.029	19.18
558.371	19.04
558.714	19.13
559.057	19.23
559.399	19.19
559.742	19.26
560.084	19.32
560.427	19.29
560.769	19.23
561.111	19.23
561.453	19.16
561.796	19.21
562.138	19.2
562.48	19.16
562.822	19.08
563.164	19.09
563.506	19.01
563.848	18.95
564.19	18.93
564.532	18.87
564.874	18.8
565.215	18.8
565.557	18.76
565.899	18.68
566.24	18.63
566.582	18.62
566.924	18.51
567.265	18.45
567.606	18.49
567.948	18.39
568.289	18.32
568.631	18.14
568.972	18.02
569.313	17.93
569.654	17.94
569.995	17.91
570.336	17.94
570.677	17.97
571.018	17.93
571.359	17.92
571.7	17.79
572.041	17.79
572.382	17.67
572.723	17.57
573.064	17.45
573.404	17.41
573.745	17.36
574.085	17.27
574.426	17.2
574.766	17.14
575.107	17.12
575.447	17.06
575.788	16.99
576.128	16.95
576.468	16.93
576.808	16.77
577.149	16.71
577.489	16.77
577.829	16.8
578.169	16.8
578.509	16.86
578.849	16.72
579.189	16.6
579.529	16.42
579.868	16.35
580.208	16.31
580.548	16.45
580.887	16.42
581.227	16.38
581.567	16.23
581.906	16.21
582.246	15.9
582.585	15.86
582.925	15.94
583.264	16
583.603	15.89
583.942	16.12
584.282	16.09
584.621	16.05
584.96	15.97
585.299	15.96
585.638	15.74
585.977	15.64
586.316	15.5
586.655	15.47
586.994	15.4
587.332	15.32
587.671	15.33
588.01	15.3
588.348	15.37
588.687	15.44
589.026	15.48
589.364	15.5
589.703	15.6
590.041	15.5
590.379	15.41
590.718	15.38
591.056	15.39
591.394	15.29
591.732	15.33
592.07	15.26
592.409	15.22
592.747	15.17
593.085	15.16
593.423	14.91
593.76	14.82
594.098	14.86
594.436	14.94
594.774	14.82
595.112	15
595.449	15.11
595.787	15.12
596.124	15.08
596.462	15.11
596.799	15.04
597.137	15.01
597.474	15.02
597.812	14.98
598.149	14.99
598.486	15.04
598.823	14.95
599.16	14.87
599.498	14.75
599.835	14.62
600.172	14.55
600.509	14.65
600.845	14.58
601.182	14.59
601.519	14.63
601.856	14.61
602.193	14.52
602.529	14.51
602.866	14.54
603.202	14.52
603.539	14.5
603.875	14.43
604.212	14.48
604.548	14.43
604.885	14.47
605.221	14.48
605.557	14.54
605.893	14.42
606.23	14.33
606.566	14.25
606.902	14.16
607.238	14.06
607.574	14.07
607.91	14.14
608.245	14.16
608.581	14.01
608.917	13.95
609.253	14.01
609.588	13.93
609.924	13.86
610.26	13.84
610.595	13.71
610.931	13.51
611.266	13.46
611.601	13.38
611.937	13.3
612.272	12.82
612.607	12.72
612.942	12.53
613.278	12.46
613.613	12.46
613.948	13.04
614.283	13.16
614.618	13.16
614.953	13.04
615.287	12.96
615.622	12.87
615.957	12.8
616.292	13
616.626	12.96
616.961	12.98
617.295	12.97
617.63	13.13
617.964	12.96
618.299	13
618.633	12.91
618.968	13.16
619.302	12.94
619.636	12.96
619.97	13.02
620.304	13.14
620.638	12.76
620.972	12.7
621.306	12.71
621.64	12.59
621.974	12.59
622.308	12.63
622.642	12.7
622.976	12.61
623.309	12.53
623.643	12.31
623.977	12.34
624.31	12.43
624.644	12.24
624.977	12.3
625.31	12.35
625.644	12.38
625.977	12.27
626.31	12.3
626.643	12.29
626.977	12.41
627.31	12.25
627.643	12.22
627.976	12.24
628.309	12.31
628.642	12.16
628.974	12.21
629.307	12.26
629.64	12.36
629.973	12.27
630.305	12.22
630.638	12.26
630.971	12.27
631.303	12.11
631.636	12.24
631.968	12.35
632.3	12.43
632.633	12.42
632.965	12.45
633.297	12.3
633.629	12.36
633.961	12.33
634.293	12.27
634.625	12.22
634.957	12.28
635.289	12.1
635.621	12.06
635.953	12.06
636.285	12.17
636.617	12.19
636.948	12.15
637.28	11.95
637.611	11.92
637.943	11.91
638.274	11.73
638.606	11.85
638.937	11.99
639.269	11.85
639.6	11.52
639.931	11.41
640.262	11.07
640.593	10.95
640.924	10.79
641.255	10.88
641.586	10.67
641.917	10.78
642.248	10.55
642.579	10.57
642.91	10.64
643.24	10.64
643.571	10.49
643.902	10.62
644.232	10.47
644.563	10.39
644.893	10.15
645.224	10.1
645.554	9.86
645.884	9.81
646.215	9.28
646.545	9.19
646.875	9
647.205	8.83
647.535	8.74
647.865	8.96
648.195	9.23
648.525	9.41
648.855	9.57
649.185	9.5
649.515	9.35
649.844	9.24
650.174	9
650.504	8.73
650.833	8.63
651.163	8.41
651.492	8.34
651.822	8.42
652.151	8.56
652.48	8.38
652.81	8.58
653.139	8.55
653.468	8.6
653.797	8.4
654.126	8.55
654.455	8.47
654.784	8.38
655.113	8.21
655.442	8.34
655.771	8.32
656.099	8.29
656.428	8.38
656.757	8.43
657.085	8.21
657.414	8.1
657.742	8.12
658.071	7.96
658.399	7.76
658.728	7.75
659.056	7.69
659.384	7.59
659.712	7.49
660.04	7.46
660.369	7.5
660.697	7.54
661.025	7.45
661.353	7.42
661.68	7.35
662.008	7.07
662.336	7.01
662.664	6.88
662.991	6.83
663.319	6.79
663.647	7.02
663.974	6.88
664.302	6.77
664.629	6.76
664.956	7.01
665.284	6.75
665.611	6.93
665.938	6.86
666.265	6.87
666.593	6.51
666.92	6.67
667.247	6.6
667.574	7.06
667.9	7.26
668.227	7.4
668.554	7.18
668.881	7.31
669.208	7.2
669.534	6.79
669.861	6.59
670.187	6.51
670.514	6.29
670.84	6.23
671.167	6.5
671.493	7.01
671.819	7.24
