Data from Moci-i2_Reflection_16-26-12-311.txt Node
Date: Tue Aug 16 16:26:12 CEST 2022
User: IDIV
Spectrometer: FLMS14958
Trigger mode: 0
Integration Time (sec): 1.000000E-1
Scans to average: 10
Electric dark correction enabled: true
Nonlinearity correction enabled: true
Boxcar width: 2
XAxis mode: Wavelengths
Number of Pixels in Spectrum: 2048
>>>>>Begin Spectral Data<<<<<
179.491	233.59
179.869	76.06
180.247	126.94
180.625	141.65
181.003	-132.96
181.381	-185.94
181.759	-74.79
182.136	-81.68
182.514	-124.22
182.892	110.33
183.27	676.56
183.647	-51.98
184.025	41.46
184.403	858.22
184.78	178.65
185.158	190.33
185.536	-216.64
185.913	400.1
186.291	-49.91
186.668	-162.07
187.046	-34.73
187.423	125.21
187.801	42.32
188.178	28.86
188.556	9.88
188.933	13.85
189.31	13.35
189.688	23.7
190.065	25.79
190.442	24.31
190.82	24.12
191.197	32.17
191.574	24.34
191.951	18.33
192.329	29.49
192.706	35.62
193.083	28.18
193.46	23.03
193.837	31.06
194.214	11.56
194.591	12.75
194.968	6.99
195.345	21.1
195.722	14.05
196.099	26.87
196.476	21.79
196.853	24.43
197.23	21.52
197.607	23.97
197.984	18.59
198.36	18.28
198.737	16.35
199.114	22.59
199.491	19.01
199.867	17.21
200.244	8.24
200.621	20.28
200.997	5.3
201.374	13.25
201.75	21.53
202.127	25.02
202.504	20.87
202.88	26.78
203.257	23.31
203.633	19.52
204.01	26.34
204.386	28.29
204.762	23.52
205.139	23.27
205.515	26.48
205.891	22.91
206.268	23.45
206.644	31.27
207.02	23.91
207.396	10.28
207.773	0.57
208.149	0.36
208.525	-3.58
208.901	-4.01
209.277	2.22
209.653	4.33
210.029	10.29
210.405	16.63
210.781	28.23
211.157	21.77
211.533	30.62
211.909	29.94
212.285	20.92
212.661	14.47
213.037	18.48
213.413	10.62
213.789	11.04
214.164	11.23
214.54	10.99
214.916	17.06
215.292	22.07
215.667	17.91
216.043	14.78
216.419	11.53
216.794	9.04
217.17	13.34
217.545	19.31
217.921	24.76
218.296	25.69
218.672	26.24
219.047	24.1
219.423	13.25
219.798	13.57
220.174	13.95
220.549	0.06
220.924	4.37
221.3	6.56
221.675	1.6
222.05	7.82
222.425	13.49
222.801	7.63
223.176	8.15
223.551	11.99
223.926	12.74
224.301	20.98
224.676	23.38
225.051	22.32
225.426	25.29
225.801	24.53
226.176	19.97
226.551	16.34
226.926	18.43
227.301	12.04
227.676	8.53
228.051	4.78
228.426	4.67
228.801	3.9
229.175	3.71
229.55	4.69
229.925	4.79
230.3	4.52
230.674	5.22
231.049	5.62
231.424	4.79
231.798	4.86
232.173	5.53
232.547	4.58
232.922	4.34
233.296	3.95
233.671	3.07
234.045	2.05
234.42	1.86
234.794	0.97
235.168	1.66
235.543	1.86
235.917	2
236.291	2.04
236.666	3.52
237.04	3.86
237.414	3.97
237.788	3.84
238.162	4.66
238.537	3.71
238.911	2.08
239.285	1.75
239.659	1.81
240.033	2.03
240.407	2.45
240.781	2.9
241.155	3.31
241.529	2.96
241.903	2.11
242.277	1.94
242.65	1.74
243.024	1.47
243.398	1.63
243.772	1.9
244.146	2.14
244.519	2.28
244.893	2.48
245.267	2.41
245.64	2.22
246.014	2.1
246.387	2.13
246.761	1.8
247.135	1.9
247.508	1.87
247.882	1.67
248.255	1.65
248.628	1.77
249.002	1.67
249.375	1.72
249.749	1.94
250.122	1.99
250.495	2.22
250.868	2.14
251.242	2.11
251.615	2.19
251.988	1.97
252.361	1.89
252.734	1.94
253.107	1.89
253.481	1.64
253.854	1.99
254.227	2.04
254.6	2.28
254.973	2.26
255.346	2.82
255.718	2.39
256.091	2.1
256.464	1.82
256.837	1.88
257.21	1.66
257.583	1.8
257.955	1.94
258.328	1.79
258.701	1.81
259.074	1.47
259.446	1.47
259.819	1.47
260.191	1.57
260.564	1.55
260.936	1.67
261.309	1.72
261.681	1.85
262.054	2.06
262.426	2.09
262.799	2.28
263.171	2.22
263.543	2.14
263.916	1.77
264.288	1.9
264.66	1.66
265.033	1.51
265.405	1.38
265.777	1.58
266.149	1.49
266.521	1.45
266.893	1.6
267.265	1.47
267.637	1.41
268.009	1.54
268.381	1.71
268.753	1.64
269.125	1.84
269.497	1.93
269.869	1.76
270.241	1.86
270.613	2.05
270.985	2.04
271.356	1.94
271.728	1.91
272.1	1.67
272.471	1.48
272.843	1.45
273.215	1.55
273.586	1.62
273.958	1.78
274.329	1.97
274.701	1.94
275.072	1.81
275.444	1.89
275.815	1.73
276.187	1.74
276.558	1.55
276.929	1.48
277.301	1.44
277.672	1.48
278.043	1.39
278.415	1.58
278.786	1.87
279.157	1.69
279.528	1.76
279.899	1.53
280.27	1.43
280.641	1.26
281.012	1.18
281.383	1.07
281.754	1.18
282.125	1.41
282.496	1.39
282.867	1.47
283.238	1.54
283.609	1.39
283.98	1.07
284.35	1.17
284.721	1.22
285.092	1.19
285.462	1.27
285.833	1.36
286.204	1.22
286.574	1.12
286.945	1.1
287.315	1.11
287.686	1.26
288.056	1.32
288.427	1.39
288.797	1.3
289.168	1.51
289.538	1.41
289.908	1.46
290.279	1.53
290.649	1.54
291.019	1.25
291.39	1.39
291.76	1.34
292.13	1.45
292.5	1.32
292.87	1.65
293.24	1.43
293.61	1.46
293.98	1.2
294.35	1.54
294.72	1.52
295.09	1.53
295.46	1.51
295.83	1.36
296.2	1.29
296.57	1.18
296.939	1.19
297.309	1.11
297.679	1.17
298.049	1.32
298.418	1.44
298.788	1.47
299.158	1.45
299.527	1.77
299.897	1.55
300.266	1.43
300.636	1.38
301.005	1.47
301.375	1.23
301.744	1.12
302.113	1.15
302.483	1.41
302.852	1.49
303.221	1.49
303.591	1.71
303.96	1.8
304.329	1.43
304.698	1.28
305.067	1.33
305.436	1.05
305.806	0.84
306.175	1.11
306.544	1.27
306.913	1.25
307.282	1.57
307.65	1.61
308.019	1.52
308.388	1.44
308.757	1.27
309.126	1.15
309.495	1.3
309.863	1.21
310.232	1.3
310.601	1.67
310.969	1.63
311.338	1.52
311.707	1.56
312.075	1.48
312.444	1.18
312.812	1.24
313.181	1.13
313.549	1.15
313.918	1.13
314.286	1.26
314.654	1.35
315.023	1.62
315.391	1.71
315.759	1.76
316.127	1.88
316.496	1.71
316.864	1.68
317.232	1.75
317.6	1.55
317.968	1.71
318.336	1.94
318.704	1.77
319.072	1.53
319.44	1.84
319.808	1.54
320.176	1.42
320.544	1.25
320.912	1.27
321.28	1
321.647	1.09
322.015	1.15
322.383	1.49
322.75	1.78
323.118	1.89
323.486	1.78
323.853	1.61
324.221	1.47
324.588	1.25
324.956	1.15
325.323	1.13
325.691	1.32
326.058	1.31
326.426	1.38
326.793	1.31
327.16	1.39
327.528	1.04
327.895	1.24
328.262	1.24
328.629	1.03
328.996	1.09
329.363	1.31
329.731	1.16
330.098	1.04
330.465	1.15
330.832	1.07
331.199	1.29
331.566	1.37
331.932	1.17
332.299	1.59
332.666	1.53
333.033	1.13
333.4	0.95
333.766	1.11
334.133	0.91
334.5	0.81
334.867	1.1
335.233	1.22
335.6	1.24
335.966	1.29
336.333	1.34
336.699	1.42
337.066	1.21
337.432	1.21
337.799	1.31
338.165	1.4
338.531	0.97
338.898	1.2
339.264	1.56
339.63	1.6
339.996	1.52
340.363	1.83
340.729	1.67
341.095	1.26
341.461	1.08
341.827	1.21
342.193	1.09
342.559	1.22
342.925	1.38
343.291	1.48
343.657	1.51
344.023	1.5
344.388	1.5
344.754	1.6
345.12	1.44
345.486	1.5
345.851	1.76
346.217	1.67
346.583	1.52
346.948	1.68
347.314	1.57
347.679	1.5
348.045	1.92
348.41	1.99
348.776	2.07
349.141	2.27
349.507	2.1
349.872	1.79
350.237	1.95
350.603	2.11
350.968	1.68
351.333	1.87
351.698	2.25
352.063	2.3
352.428	2.04
352.794	2.32
353.159	2.36
353.524	2.1
353.889	2
354.254	2.28
354.618	2.22
354.983	2.17
355.348	2.28
355.713	2.1
356.078	2
356.443	2.15
356.807	2.29
357.172	2.18
357.537	2.2
357.901	2.16
358.266	2.24
358.63	2.25
358.995	2.35
359.359	2.51
359.724	2.53
360.088	2.42
360.453	2.24
360.817	2.14
361.181	1.96
361.546	1.95
361.91	1.88
362.274	1.89
362.638	1.88
363.003	2.11
363.367	2.07
363.731	2.03
364.095	2.18
364.459	2.48
364.823	2.44
365.187	2.45
365.551	2.6
365.915	2.69
366.279	2.46
366.642	2.49
367.006	2.65
367.37	2.62
367.734	2.6
368.097	2.64
368.461	2.57
368.825	2.39
369.188	2.68
369.552	2.7
369.915	2.61
370.279	2.59
370.642	2.75
371.006	2.63
371.369	2.44
371.732	2.56
372.096	2.68
372.459	2.68
372.822	2.58
373.186	2.68
373.549	2.72
373.912	2.66
374.275	2.65
374.638	2.81
375.001	2.92
375.364	2.85
375.727	2.79
376.09	2.71
376.453	2.68
376.816	2.58
377.179	2.72
377.542	2.84
377.904	2.93
378.267	2.93
378.63	3.06
378.993	2.97
379.355	2.85
379.718	2.95
380.08	2.97
380.443	3.12
380.806	3.13
381.168	3.17
381.53	3.21
381.893	3.2
382.255	3.03
382.618	3.17
382.98	3.33
383.342	3.36
383.704	3.33
384.067	3.35
384.429	3.37
384.791	3.47
385.153	3.37
385.515	3.55
385.877	3.69
386.239	3.65
386.601	3.58
386.963	3.76
387.325	3.8
387.687	3.79
388.049	3.81
388.41	3.9
388.772	3.82
389.134	3.81
389.496	3.85
389.857	4.02
390.219	4.12
390.58	4.16
390.942	4.25
391.303	4.36
391.665	4.41
392.026	4.39
392.388	4.61
392.749	4.7
393.111	4.75
393.472	4.8
393.833	4.9
394.194	4.9
394.556	4.85
394.917	4.97
395.278	5.1
395.639	5.12
396	5.25
396.361	5.51
396.722	5.55
397.083	5.71
397.444	6
397.805	6.09
398.166	6.29
398.526	6.43
398.887	6.49
399.248	6.49
399.609	6.57
399.969	6.57
400.33	6.63
400.691	6.72
401.051	6.9
401.412	7.1
401.772	7.17
402.133	7.4
402.493	7.54
402.853	7.68
403.214	7.8
403.574	7.92
403.934	8.04
404.295	8.23
404.655	8.29
405.015	8.45
405.375	8.64
405.735	8.74
406.095	8.91
406.455	9.03
406.815	9.09
407.175	9.14
407.535	9.4
407.895	9.48
408.255	9.67
408.615	9.88
408.975	10.12
409.334	10.23
409.694	10.41
410.054	10.6
410.413	10.83
410.773	10.9
411.133	11.02
411.492	11.19
411.852	11.37
412.211	11.49
412.571	11.78
412.93	11.94
413.289	11.97
413.649	12.06
414.008	12.15
414.367	12.07
414.726	12.06
415.086	12.13
415.445	12.26
415.804	12.3
416.163	12.5
416.522	12.69
416.881	12.77
417.24	12.91
417.599	13.06
417.958	13.07
418.316	13.22
418.675	13.37
419.034	13.41
419.393	13.52
419.751	13.74
420.11	13.77
420.469	13.85
420.827	13.98
421.186	14
421.544	13.95
421.903	14.03
422.261	14.13
422.62	14.21
422.978	14.33
423.336	14.57
423.695	14.69
424.053	14.7
424.411	14.72
424.769	14.79
425.128	14.83
425.486	14.84
425.844	15.01
426.202	15.15
426.56	15.24
426.918	15.26
427.276	15.36
427.634	15.31
427.991	15.25
428.349	15.25
428.707	15.4
429.065	15.42
429.423	15.61
429.78	15.79
430.138	15.9
430.495	15.9
430.853	15.98
431.211	15.93
431.568	15.93
431.925	15.9
432.283	15.88
432.64	15.95
432.998	16.06
433.355	16.05
433.712	16.24
434.069	16.37
434.427	16.39
434.784	16.46
435.141	16.59
435.498	16.56
435.855	16.52
436.212	16.49
436.569	16.5
436.926	16.47
437.283	16.45
437.64	16.54
437.996	16.64
438.353	16.62
438.71	16.69
439.067	16.81
439.423	16.8
439.78	16.81
440.137	16.92
440.493	16.89
440.85	16.85
441.206	16.92
441.563	17.03
441.919	17.07
442.275	17.26
442.632	17.29
442.988	17.37
443.344	17.36
443.7	17.33
444.057	17.3
444.413	17.32
444.769	17.36
445.125	17.45
445.481	17.53
445.837	17.54
446.193	17.63
446.549	17.61
446.905	17.58
447.26	17.59
447.616	17.59
447.972	17.55
448.328	17.55
448.683	17.51
449.039	17.5
449.395	17.57
449.75	17.66
450.106	17.79
450.461	17.9
450.817	17.96
451.172	18
451.527	17.98
451.883	17.92
452.238	18.04
452.593	18.13
452.949	18.23
453.304	18.32
453.659	18.31
454.014	18.26
454.369	18.22
454.724	18.15
455.079	18.05
455.434	18.16
455.789	18.2
456.144	18.17
456.499	18.21
456.853	18.36
457.208	18.39
457.563	18.36
457.918	18.37
458.272	18.38
458.627	18.42
458.981	18.38
459.336	18.42
459.69	18.5
460.045	18.49
460.399	18.53
460.754	18.54
461.108	18.58
461.462	18.54
461.817	18.58
462.171	18.51
462.525	18.51
462.879	18.45
463.233	18.49
463.587	18.47
463.941	18.53
464.295	18.55
464.649	18.65
465.003	18.69
465.357	18.72
465.711	18.75
466.065	18.75
466.418	18.77
466.772	18.74
467.126	18.73
467.479	18.67
467.833	18.72
468.186	18.72
468.54	18.76
468.893	18.82
469.247	18.86
469.6	18.87
469.954	18.87
470.307	18.87
470.66	18.88
471.013	18.92
471.367	18.92
471.72	18.92
472.073	18.98
472.426	18.96
472.779	18.94
473.132	18.95
473.485	18.97
473.838	18.9
474.191	18.8
474.544	18.77
474.896	18.74
475.249	18.79
475.602	18.77
475.955	18.94
476.307	18.95
476.66	19
477.012	18.97
477.365	18.9
477.717	18.94
478.07	18.86
478.422	18.76
478.775	18.74
479.127	18.89
479.479	18.84
479.831	18.89
480.184	18.99
480.536	19
480.888	18.9
481.24	18.81
481.592	18.88
481.944	18.82
482.296	18.78
482.648	18.78
483	18.76
483.352	18.73
483.703	18.77
484.055	18.79
484.407	18.86
484.759	18.95
485.11	19.02
485.462	19.08
485.813	19.18
486.165	19.19
486.516	19.19
486.868	19.16
487.219	19.15
487.571	19.14
487.922	19.18
488.273	19.19
488.624	19.25
488.976	19.29
489.327	19.31
489.678	19.3
490.029	19.31
490.38	19.31
490.731	19.31
491.082	19.32
491.433	19.36
491.784	19.37
492.135	19.4
492.485	19.47
492.836	19.54
493.187	19.55
493.537	19.62
493.888	19.67
494.239	19.62
494.589	19.62
494.94	19.68
495.29	19.71
495.641	19.69
495.991	19.68
496.341	19.6
496.692	19.58
497.042	19.56
497.392	19.63
497.742	19.74
498.092	19.86
498.442	19.92
498.793	19.9
499.143	19.89
499.493	19.79
499.842	19.81
500.192	19.91
500.542	19.96
500.892	20.01
501.242	20.09
501.591	20.09
501.941	20.04
502.291	20.07
502.64	20.06
502.99	20.09
503.339	20.05
503.689	19.97
504.038	19.99
504.388	19.95
504.737	19.95
505.086	20.06
505.436	20.18
505.785	20.19
506.134	20.28
506.483	20.35
506.832	20.26
507.181	20.2
507.53	20.2
507.879	20.14
508.228	20.15
508.577	20.26
508.926	20.28
509.275	20.32
509.624	20.44
509.972	20.48
510.321	20.39
510.67	20.44
511.018	20.45
511.367	20.46
511.715	20.51
512.064	20.5
512.412	20.5
512.761	20.55
513.109	20.64
513.457	20.63
513.806	20.74
514.154	20.8
514.502	20.85
514.85	20.76
515.198	20.72
515.546	20.68
515.894	20.72
516.242	20.68
516.59	20.66
516.938	20.64
517.286	20.65
517.634	20.64
517.981	20.61
518.329	20.63
518.677	20.64
519.024	20.73
519.372	20.73
519.72	20.81
520.067	20.84
520.415	20.86
520.762	20.83
521.109	20.84
521.457	20.82
521.804	20.84
522.151	20.83
522.498	20.83
522.846	20.84
523.193	20.84
523.54	20.8
523.887	20.87
524.234	20.81
524.581	20.78
524.928	20.77
525.275	20.82
525.621	20.78
525.968	20.77
526.315	20.83
526.662	20.87
527.008	20.89
527.355	20.93
527.701	20.93
528.048	20.84
528.394	20.86
528.741	20.81
529.087	20.83
529.434	20.9
529.78	20.96
530.126	20.95
530.472	21.03
530.819	21.05
531.165	21.02
531.511	21.03
531.857	21.03
532.203	20.93
532.549	20.88
532.895	20.86
533.241	20.82
533.586	20.81
533.932	20.89
534.278	20.95
534.624	20.99
534.969	21.04
535.315	21.1
535.661	21.05
536.006	20.97
536.352	20.92
536.697	20.95
537.042	20.93
537.388	20.99
537.733	21
538.078	21.04
538.424	20.97
538.769	20.98
539.114	20.91
539.459	20.99
539.804	21.01
540.149	21.07
540.494	21.05
540.839	21.02
541.184	21.01
541.529	21.05
541.873	21.05
542.218	21.05
542.563	21.09
542.908	21.1
543.252	21.1
543.597	21.15
543.941	21.2
544.286	21.21
544.63	21.25
544.975	21.26
545.319	21.23
545.663	21.17
546.007	21.15
546.352	21.16
546.696	21.15
547.04	21.1
547.384	21.17
547.728	21.21
548.072	21.18
548.416	21.15
548.76	21.19
549.104	21.11
549.448	21.1
549.791	21
550.135	21.05
550.479	20.99
550.823	20.97
551.166	20.99
551.51	21.09
551.853	20.97
552.197	20.97
552.54	20.99
552.883	20.93
553.227	20.94
553.57	21.01
553.913	21.03
554.257	20.95
554.6	21
554.943	20.94
555.286	20.85
555.629	20.81
555.972	20.84
556.315	20.77
556.658	20.78
557.001	20.84
557.343	20.87
557.686	20.98
558.029	21
558.371	21.02
558.714	21
559.057	20.93
559.399	20.85
559.742	20.87
560.084	20.92
560.427	20.95
560.769	21.05
561.111	21.08
561.453	21.06
561.796	21.07
562.138	21.1
562.48	21.05
562.822	20.96
563.164	21.01
563.506	20.95
563.848	20.82
564.19	20.82
564.532	20.87
564.874	20.85
565.215	20.75
565.557	20.81
565.899	20.89
566.24	20.9
566.582	20.86
566.924	20.91
567.265	20.96
567.606	20.87
567.948	20.9
568.289	20.9
568.631	21.06
568.972	21.01
569.313	21.03
569.654	20.95
569.995	21.06
570.336	20.96
570.677	20.94
571.018	20.94
571.359	21.02
571.7	20.92
572.041	20.93
572.382	20.95
572.723	20.96
573.064	20.88
573.404	20.9
573.745	20.85
574.085	20.88
574.426	20.89
574.766	20.92
575.107	20.9
575.447	20.92
575.788	20.91
576.128	20.95
576.468	20.95
576.808	21.04
577.149	21
577.489	21.08
577.829	21.03
578.169	21.11
578.509	21.05
578.849	21.14
579.189	20.99
579.529	21.02
579.868	20.96
580.208	21.06
580.548	21.06
580.887	21.13
581.227	21.1
581.567	21.15
581.906	20.95
582.246	20.8
582.585	20.91
582.925	20.95
583.264	20.98
583.603	21.13
583.942	21.21
584.282	21.19
584.621	21.13
584.96	21.07
585.299	21.04
585.638	21.19
585.977	21.1
586.316	21.08
586.655	21.06
586.994	21.12
587.332	20.95
587.671	20.89
588.01	20.99
588.348	20.99
588.687	21.02
589.026	21.02
589.364	21.13
589.703	21.13
590.041	21.06
590.379	20.9
590.718	20.97
591.056	20.91
591.394	20.87
591.732	21.03
592.07	21.08
592.409	21.09
592.747	21.09
593.085	21.05
593.423	20.91
593.76	20.88
594.098	20.88
594.436	20.86
594.774	20.93
595.112	20.93
595.449	20.96
595.787	20.84
596.124	20.82
596.462	20.74
596.799	20.8
597.137	20.76
597.474	20.72
597.812	20.76
598.149	20.89
598.486	20.86
598.823	20.94
599.16	21.09
599.498	20.99
599.835	20.96
600.172	20.94
600.509	20.99
600.845	20.93
601.182	21.01
601.519	20.92
601.856	21.01
602.193	20.94
602.529	20.94
602.866	20.96
603.202	20.94
603.539	20.84
603.875	20.85
604.212	20.91
604.548	20.89
604.885	20.93
605.221	20.95
605.557	20.99
605.893	20.9
606.23	20.92
606.566	20.96
606.902	21.05
607.238	21.01
607.574	21.07
607.91	20.97
608.245	20.92
608.581	20.76
608.917	20.71
609.253	20.71
609.588	20.77
609.924	20.81
610.26	21.08
610.595	21.22
610.931	21.32
611.266	21.51
611.601	21.49
611.937	21.33
612.272	21.37
612.607	21.41
612.942	21.3
613.278	21.29
613.613	21.25
613.948	21.22
614.283	21.03
614.618	20.93
614.953	20.87
615.287	20.88
615.622	20.82
615.957	20.9
616.292	20.91
616.626	20.97
616.961	20.96
617.295	20.95
617.63	21.02
617.964	20.93
618.299	20.95
618.633	20.94
618.968	20.87
619.302	20.83
619.636	20.93
619.97	20.89
620.304	20.94
620.638	20.92
620.972	20.97
621.306	20.91
621.64	20.83
621.974	20.8
622.308	20.86
622.642	20.76
622.976	20.89
623.309	21.08
623.643	21.02
623.977	20.94
624.31	21.06
624.644	20.83
624.977	20.68
625.31	20.7
625.644	20.6
625.977	20.43
626.31	20.56
626.643	20.5
626.977	20.6
627.31	20.75
627.643	20.82
627.976	20.82
628.309	20.96
628.642	20.89
628.974	20.83
629.307	20.78
629.64	20.8
629.973	20.8
630.305	20.77
630.638	20.81
630.971	20.85
631.303	20.67
631.636	20.61
631.968	20.61
632.3	20.57
632.633	20.48
632.965	20.62
633.297	20.59
633.629	20.61
633.961	20.56
634.293	20.66
634.625	20.64
634.957	20.65
635.289	20.66
635.621	20.84
635.953	20.82
636.285	20.94
636.617	20.88
636.948	20.9
637.28	20.76
637.611	20.86
637.943	20.72
638.274	20.86
638.606	20.79
638.937	20.81
639.269	20.81
639.6	20.99
639.931	21.11
640.262	21.15
640.593	21.21
640.924	21.16
641.255	21.06
641.586	20.92
641.917	20.82
642.248	20.83
642.579	20.77
642.91	20.75
643.24	20.74
643.571	20.79
643.902	20.68
644.232	20.63
644.563	20.67
644.893	20.69
645.224	20.85
645.554	20.98
645.884	21.01
646.215	20.97
646.545	20.93
646.875	20.95
647.205	20.71
647.535	20.65
647.865	20.58
648.195	20.43
648.525	20.28
648.855	20.36
649.185	20.32
649.515	20.29
649.844	20.4
650.174	20.46
650.504	20.4
650.833	20.41
651.163	20.46
651.492	20.38
651.822	20.28
652.151	20.35
652.48	20.45
652.81	20.39
653.139	20.47
653.468	20.51
653.797	20.56
654.126	20.58
654.455	20.64
654.784	20.73
655.113	20.78
655.442	20.83
655.771	20.65
656.099	20.72
656.428	20.61
656.757	20.42
657.085	20.17
657.414	20.27
657.742	20.3
658.071	20.36
658.399	20.41
658.728	20.57
659.056	20.56
659.384	20.46
659.712	20.34
660.04	20.36
660.369	20.23
660.697	20.09
661.025	20.09
661.353	20.18
661.68	20.2
662.008	20.23
662.336	20.41
662.664	20.33
662.991	20.1
663.319	20.16
663.647	20.25
