Data from Pd-i3_Reflection_15-11-50-456.txt Node
Date: Tue Aug 16 15:11:50 CEST 2022
User: IDIV
Spectrometer: FLMS14958
Trigger mode: 0
Integration Time (sec): 1.000000E-1
Scans to average: 10
Electric dark correction enabled: true
Nonlinearity correction enabled: true
Boxcar width: 2
XAxis mode: Wavelengths
Number of Pixels in Spectrum: 2048
>>>>>Begin Spectral Data<<<<<
179.491	-61.91
179.869	33.9
180.247	33.89
180.625	141.21
181.003	-452.97
181.381	-148.33
181.759	-18.47
182.136	22.03
182.514	138.98
182.892	160.89
183.27	197.91
183.647	230.79
184.025	652.45
184.403	66.28
184.78	19.84
185.158	-89.79
185.536	100.93
185.913	119.26
186.291	59.89
186.668	78.21
187.046	105.3
187.423	86.91
187.801	44.18
188.178	20.19
188.556	-1.48
188.933	-4.29
189.31	-3.16
189.688	11.37
190.065	9.88
190.442	9.91
190.82	18.38
191.197	6.55
191.574	4.27
191.951	15.9
192.329	16.74
192.706	17.25
193.083	22.89
193.46	19.14
193.837	2.91
194.214	2.19
194.591	-1.15
194.968	3.22
195.345	-9.97
195.722	-10.45
196.099	-23.53
196.476	-16.89
196.853	-28.9
197.23	-9.85
197.607	3.3
197.984	9.51
198.36	3.83
198.737	14.68
199.114	7.57
199.491	-3.14
199.867	3.81
200.244	14.85
200.621	2.72
200.997	6.37
201.374	12.73
201.75	4.42
202.127	-7.62
202.504	1.39
202.88	-12.99
203.257	-7.99
203.633	-3.73
204.01	3.92
204.386	6.82
204.762	23.37
205.139	27.32
205.515	31.31
205.891	31.84
206.268	32.38
206.644	34.46
207.02	30.22
207.396	25.35
207.773	23.84
208.149	23.15
208.525	18.73
208.901	21.72
209.277	20.77
209.653	15.19
210.029	7.16
210.405	-3.09
210.781	-7.8
211.157	-2.62
211.533	3.39
211.909	11.78
212.285	20.06
212.661	12.37
213.037	10.85
213.413	0.57
213.789	-8.91
214.164	-14.61
214.54	-0.33
214.916	9.12
215.292	21.4
215.667	28.32
216.043	25.89
216.419	6.78
216.794	1.92
217.17	-9.54
217.545	-25.63
217.921	-10.85
218.296	8.06
218.672	6.99
219.047	17.65
219.423	25.59
219.798	28.8
220.174	25.48
220.549	28.9
220.924	34.72
221.3	25.96
221.675	20.09
222.05	21.02
222.425	10.07
222.801	1.55
223.176	-1.19
223.551	-5.14
223.926	-6.45
224.301	-8.76
224.676	-6.51
225.051	3.83
225.426	1.03
225.801	-1.75
226.176	8.29
226.551	7.53
226.926	0.89
227.301	4.52
227.676	7.53
228.051	1.29
228.426	2.63
228.801	4.36
229.175	3.77
229.55	2.98
229.925	4.78
230.3	3.43
230.674	1.86
231.049	1.64
231.424	1.06
231.798	-2.09
232.173	-2.93
232.547	-3.27
232.922	-3.22
233.296	-3.01
233.671	0.32
234.045	2.29
234.42	3.07
234.794	1.84
235.168	2.81
235.543	1.87
235.917	0.88
236.291	1.31
236.666	2.3
237.04	3.09
237.414	3.56
237.788	3.88
238.162	4.22
238.537	3.28
238.911	1.64
239.285	0.29
239.659	0.21
240.033	1.15
240.407	1.26
240.781	1.27
241.155	1.6
241.529	1.19
241.903	-0.16
242.277	-0.05
242.65	0.31
243.024	0.27
243.398	0.61
243.772	0.66
244.146	0.61
244.519	0.46
244.893	0.32
245.267	-0.75
245.64	-0.28
246.014	-0.5
246.387	-0.74
246.761	-0.58
247.135	-0.08
247.508	0.01
247.882	0.24
248.255	0.39
248.628	0.26
249.002	0.3
249.375	0.25
249.749	0.28
250.122	-0.06
250.495	0.33
250.868	-0.14
251.242	0.14
251.615	0.24
251.988	0.94
252.361	1.3
252.734	1.45
253.107	1.14
253.481	0.84
253.854	0.66
254.227	0.46
254.6	0.63
254.973	0.77
255.346	1.1
255.718	1.22
256.091	1.06
256.464	1.47
256.837	1.15
257.21	0.9
257.583	0.65
257.955	0.77
258.328	0.12
258.701	0.38
259.074	0.34
259.446	0.17
259.819	0.3
260.191	0.34
260.564	0.27
260.936	0.39
261.309	0.64
261.681	0.59
262.054	0.81
262.426	1.26
262.799	1.34
263.171	0.89
263.543	0.69
263.916	0.67
264.288	0.17
264.66	-0.53
265.033	-0.17
265.405	-0.15
265.777	-0.34
266.149	-0.12
266.521	0.24
266.893	0.28
267.265	0.16
267.637	0.21
268.009	-0.03
268.381	-0.01
268.753	-0.15
269.125	0.14
269.497	0.23
269.869	0.52
270.241	0.6
270.613	0.79
270.985	0.78
271.356	0.78
271.728	0.51
272.1	0.59
272.471	0.4
272.843	0.21
273.215	0.25
273.586	0.2
273.958	0.23
274.329	0.34
274.701	0.67
275.072	0.53
275.444	0.92
275.815	0.52
276.187	0.68
276.558	0.55
276.929	0.43
277.301	0.18
277.672	0.57
278.043	0.25
278.415	0.45
278.786	0.55
279.157	0.94
279.528	0.88
279.899	1.23
280.27	1.05
280.641	0.96
281.012	0.77
281.383	0.81
281.754	0.59
282.125	0.02
282.496	-0.09
282.867	-0.35
283.238	-0.25
283.609	-0.21
283.98	0.27
284.35	0.64
284.721	0.99
285.092	0.66
285.462	0.62
285.833	0.48
286.204	0.33
286.574	0.24
286.945	0.27
287.315	0.15
287.686	0.13
288.056	-0.07
288.427	-0.12
288.797	-0.28
289.168	-0.12
289.538	-0.22
289.908	-0.27
290.279	0.12
290.649	0.15
291.019	0.22
291.39	0.62
291.76	1.09
292.13	0.71
292.5	0.8
292.87	0.6
293.24	0.35
293.61	-0.09
293.98	-0.2
294.35	-0.17
294.72	-0.1
295.09	-0.13
295.46	0.33
295.83	0.54
296.2	0.59
296.57	0.46
296.939	0.48
297.309	0.06
297.679	-0.05
298.049	-0.15
298.418	-0.02
298.788	0.11
299.158	0.39
299.527	0.51
299.897	0.51
300.266	0.59
300.636	0.15
301.005	0.25
301.375	0.38
301.744	0.56
302.113	0.64
302.483	0.76
302.852	0.55
303.221	0.58
303.591	0.5
303.96	0.54
304.329	0.86
304.698	0.95
305.067	0.48
305.436	0.44
305.806	0.02
306.175	-0.04
306.544	-0.22
306.913	-0.34
307.282	-0.26
307.65	0.31
308.019	0.19
308.388	0.27
308.757	0.41
309.126	0.39
309.495	0.31
309.863	0.41
310.232	0.61
310.601	0.58
310.969	0.68
311.338	0.17
311.707	-0.04
312.075	-0.37
312.444	-0.21
312.812	-0.41
313.181	-0.24
313.549	-0.39
313.918	-0.54
314.286	-0.28
314.654	-0.05
315.023	-0.11
315.391	0.18
315.759	0.51
316.127	0.18
316.496	0.05
316.864	0.27
317.232	-0.1
317.6	-0.08
317.968	0.05
318.336	0.13
318.704	0.16
319.072	0.42
319.44	0.51
319.808	0.77
320.176	1
320.544	0.95
320.912	1.12
321.28	0.88
321.647	0.64
322.015	0.35
322.383	0.2
322.75	0.23
323.118	0.32
323.486	0.27
323.853	0.14
324.221	0.28
324.588	0.05
324.956	-0.25
325.323	-0.28
325.691	-0.06
326.058	-0.1
326.426	0.09
326.793	0.61
327.16	0.62
327.528	0.44
327.895	0.42
328.262	0.66
328.629	0.48
328.996	0.5
329.363	0.35
329.731	0.33
330.098	0.14
330.465	0.04
330.832	0.01
331.199	0.09
331.566	0.17
331.932	-0.02
332.299	0.06
332.666	0.06
333.033	0.16
333.4	0.21
333.766	0.56
334.133	0.42
334.5	0.24
334.867	0.27
335.233	0.19
335.6	-0.18
335.966	0.19
336.333	0.57
336.699	0.56
337.066	0.73
337.432	0.73
337.799	0.36
338.165	0.12
338.531	0.16
338.898	-0.13
339.264	-0.02
339.63	-0.36
339.996	-0.33
340.363	-0.57
340.729	-0.27
341.095	-0.17
341.461	0.25
341.827	0.43
342.193	0.55
342.559	0.59
342.925	0.5
343.291	0.75
343.657	0.55
344.023	0.52
344.388	0.07
344.754	0.04
345.12	-0.36
345.486	-0.15
345.851	0.13
346.217	0.47
346.583	0.88
346.948	1.18
347.314	0.91
347.679	0.91
348.045	0.81
348.41	0.63
348.776	0.6
349.141	0.53
349.507	0.49
349.872	0.55
350.237	0.19
350.603	0.18
350.968	0.39
351.333	0.46
351.698	0.46
352.063	0.51
352.428	0.34
352.794	0.47
353.159	0.26
353.524	0.16
353.889	0.09
354.254	0.28
354.618	0.13
354.983	-0.04
355.348	-0.11
355.713	0.01
356.078	0.05
356.443	-0.18
356.807	0.16
357.172	0.27
357.537	0.23
357.901	0.09
358.266	0.25
358.63	0.04
358.995	-0.1
359.359	0.03
359.724	0.11
360.088	0.41
360.453	0.32
360.817	0.44
361.181	0.42
361.546	0.45
361.91	0.19
362.274	0.33
362.638	0.32
363.003	0.36
363.367	0.36
363.731	0.43
364.095	0.28
364.459	0.45
364.823	0.27
365.187	0.4
365.551	0.41
365.915	0.57
366.279	0.4
366.642	0.21
367.006	0.2
367.37	0.11
367.734	0.02
368.097	-0.05
368.461	0.18
368.825	-0.06
369.188	0.04
369.552	0.19
369.915	0.25
370.279	0.56
370.642	0.63
371.006	0.51
371.369	0.4
371.732	0.34
372.096	0.11
372.459	0.19
372.822	0.35
373.186	0.36
373.549	0.49
373.912	0.66
374.275	0.58
374.638	0.52
375.001	0.44
375.364	0.26
375.727	0.17
376.09	0.27
376.453	0.34
376.816	0.35
377.179	0.68
377.542	0.8
377.904	0.73
378.267	0.73
378.63	0.85
378.993	0.63
379.355	0.36
379.718	0.2
380.08	0.33
380.443	0.36
380.806	0.4
381.168	0.4
381.53	0.5
381.893	0.27
382.255	0.06
382.618	0.03
382.98	0.13
383.342	0.4
383.704	0.46
384.067	0.5
384.429	0.5
384.791	0.47
385.153	0.31
385.515	0.27
385.877	0.37
386.239	0.3
386.601	0.21
386.963	0.29
387.325	0.17
387.687	0.26
388.049	0.22
388.41	0.37
388.772	0.33
389.134	0.51
389.496	0.5
389.857	0.73
390.219	0.86
390.58	0.76
390.942	0.74
391.303	0.63
391.665	0.6
392.026	0.45
392.388	0.52
392.749	0.54
393.111	0.6
393.472	0.6
393.833	0.67
394.194	0.6
394.556	0.51
394.917	0.42
395.278	0.39
395.639	0.37
396	0.24
396.361	0.5
396.722	0.66
397.083	0.68
397.444	0.77
397.805	1
398.166	0.76
398.526	0.7
398.887	0.64
399.248	0.5
399.609	0.38
399.969	0.35
400.33	0.33
400.691	0.32
401.051	0.56
401.412	0.72
401.772	0.77
402.133	0.75
402.493	0.73
402.853	0.43
403.214	0.4
403.574	0.48
403.934	0.52
404.295	0.52
404.655	0.61
405.015	0.48
405.375	0.44
405.735	0.44
406.095	0.41
406.455	0.38
406.815	0.54
407.175	0.48
407.535	0.46
407.895	0.5
408.255	0.49
408.615	0.38
408.975	0.41
409.334	0.36
409.694	0.4
410.054	0.38
410.413	0.48
410.773	0.53
411.133	0.6
411.492	0.66
411.852	0.83
412.211	0.82
412.571	0.87
412.93	0.82
413.289	0.61
413.649	0.56
414.008	0.47
414.367	0.4
414.726	0.35
415.086	0.6
415.445	0.49
415.804	0.49
416.163	0.45
416.522	0.44
416.881	0.4
417.24	0.5
417.599	0.45
417.958	0.43
418.316	0.43
418.675	0.43
419.034	0.41
419.393	0.48
419.751	0.55
420.11	0.54
420.469	0.51
420.827	0.51
421.186	0.49
421.544	0.46
421.903	0.46
422.261	0.41
422.62	0.38
422.978	0.42
423.336	0.44
423.695	0.49
424.053	0.47
424.411	0.51
424.769	0.49
425.128	0.45
425.486	0.43
425.844	0.53
426.202	0.43
426.56	0.38
426.918	0.36
427.276	0.33
427.634	0.2
427.991	0.18
428.349	0.15
428.707	0.3
429.065	0.32
429.423	0.33
429.78	0.44
430.138	0.42
430.495	0.39
430.853	0.39
431.211	0.46
431.568	0.54
431.925	0.64
432.283	0.53
432.64	0.49
432.998	0.44
433.355	0.39
433.712	0.34
434.069	0.4
434.427	0.41
434.784	0.43
435.141	0.37
435.498	0.39
435.855	0.38
436.212	0.48
436.569	0.48
436.926	0.45
437.283	0.48
437.64	0.51
437.996	0.39
438.353	0.37
438.71	0.42
439.067	0.44
439.423	0.43
439.78	0.47
440.137	0.52
440.493	0.55
440.85	0.55
441.206	0.58
441.563	0.59
441.919	0.59
442.275	0.6
442.632	0.53
442.988	0.45
443.344	0.45
443.7	0.41
444.057	0.39
444.413	0.4
444.769	0.43
445.125	0.39
445.481	0.42
445.837	0.44
446.193	0.45
446.549	0.44
446.905	0.45
447.26	0.4
447.616	0.32
447.972	0.33
448.328	0.3
448.683	0.33
449.039	0.36
449.395	0.52
449.75	0.52
450.106	0.53
450.461	0.53
450.817	0.55
451.172	0.39
451.527	0.42
451.883	0.49
452.238	0.51
452.593	0.49
452.949	0.5
453.304	0.5
453.659	0.49
454.014	0.35
454.369	0.29
454.724	0.31
455.079	0.21
455.434	0.2
455.789	0.33
456.144	0.43
456.499	0.41
456.853	0.45
457.208	0.49
457.563	0.42
457.918	0.35
458.272	0.42
458.627	0.36
458.981	0.33
459.336	0.4
459.69	0.46
460.045	0.43
460.399	0.5
460.754	0.54
461.108	0.5
461.462	0.5
461.817	0.53
462.171	0.54
462.525	0.52
462.879	0.65
463.233	0.67
463.587	0.64
463.941	0.62
464.295	0.64
464.649	0.55
465.003	0.58
465.357	0.55
465.711	0.58
466.065	0.52
466.418	0.56
466.772	0.52
467.126	0.52
467.479	0.53
467.833	0.6
468.186	0.61
468.54	0.62
468.893	0.65
469.247	0.64
469.6	0.6
469.954	0.58
470.307	0.51
470.66	0.43
471.013	0.44
471.367	0.4
471.72	0.4
472.073	0.46
472.426	0.55
472.779	0.55
473.132	0.54
473.485	0.57
473.838	0.5
474.191	0.45
474.544	0.44
474.896	0.36
475.249	0.38
475.602	0.44
475.955	0.44
476.307	0.38
476.66	0.44
477.012	0.35
477.365	0.36
477.717	0.35
478.07	0.4
478.422	0.4
478.775	0.43
479.127	0.35
479.479	0.43
479.831	0.41
480.184	0.44
480.536	0.46
480.888	0.54
481.24	0.57
481.592	0.58
481.944	0.55
482.296	0.5
482.648	0.49
483	0.45
483.352	0.43
483.703	0.44
484.055	0.45
484.407	0.45
484.759	0.44
485.11	0.45
485.462	0.44
485.813	0.46
486.165	0.44
486.516	0.49
486.868	0.47
487.219	0.47
487.571	0.47
487.922	0.48
488.273	0.47
488.624	0.48
488.976	0.52
489.327	0.52
489.678	0.54
490.029	0.55
490.38	0.56
490.731	0.54
491.082	0.53
491.433	0.54
491.784	0.54
492.135	0.55
492.485	0.54
492.836	0.52
493.187	0.47
493.537	0.48
493.888	0.43
494.239	0.42
494.589	0.42
494.94	0.46
495.29	0.46
495.641	0.49
495.991	0.54
496.341	0.56
496.692	0.62
497.042	0.57
497.392	0.54
497.742	0.51
498.092	0.5
498.442	0.49
498.793	0.47
499.143	0.56
499.493	0.57
499.842	0.5
500.192	0.49
500.542	0.56
500.892	0.5
501.242	0.48
501.591	0.55
501.941	0.53
502.291	0.53
502.64	0.6
502.99	0.62
503.339	0.65
503.689	0.61
504.038	0.66
504.388	0.6
504.737	0.67
505.086	0.67
505.436	0.72
505.785	0.62
506.134	0.56
506.483	0.47
506.832	0.36
507.181	0.4
507.53	0.42
507.879	0.45
508.228	0.45
508.577	0.55
508.926	0.47
509.275	0.5
509.624	0.43
509.972	0.46
510.321	0.42
510.67	0.48
511.018	0.44
511.367	0.49
511.715	0.46
512.064	0.49
512.412	0.46
512.761	0.46
513.109	0.46
513.457	0.51
513.806	0.48
514.154	0.43
514.502	0.5
514.85	0.51
515.198	0.49
515.546	0.53
515.894	0.56
516.242	0.51
516.59	0.55
516.938	0.54
517.286	0.5
517.634	0.48
517.981	0.5
518.329	0.49
518.677	0.48
519.024	0.51
519.372	0.5
519.72	0.47
520.067	0.44
520.415	0.45
520.762	0.47
521.109	0.43
521.457	0.44
521.804	0.43
522.151	0.39
522.498	0.35
522.846	0.42
523.193	0.45
523.54	0.47
523.887	0.6
524.234	0.51
524.581	0.49
524.928	0.49
525.275	0.49
525.621	0.43
525.968	0.46
526.315	0.47
526.662	0.49
527.008	0.49
527.355	0.51
527.701	0.55
528.048	0.53
528.394	0.51
528.741	0.51
529.087	0.53
529.434	0.52
529.78	0.54
530.126	0.53
530.472	0.56
530.819	0.55
531.165	0.6
531.511	0.58
531.857	0.62
532.203	0.58
532.549	0.55
532.895	0.47
533.241	0.52
533.586	0.5
533.932	0.49
534.278	0.51
534.624	0.54
534.969	0.56
535.315	0.58
535.661	0.64
536.006	0.61
536.352	0.64
536.697	0.6
537.042	0.6
537.388	0.59
537.733	0.61
538.078	0.6
538.424	0.56
538.769	0.62
539.114	0.66
539.459	0.7
539.804	0.69
540.149	0.8
540.494	0.72
540.839	0.7
541.184	0.67
541.529	0.68
541.873	0.69
542.218	0.7
542.563	0.72
542.908	0.75
543.252	0.77
543.597	0.71
543.941	0.7
544.286	0.72
544.63	0.75
544.975	0.74
545.319	0.78
545.663	0.79
546.007	0.79
546.352	0.77
546.696	0.76
547.04	0.74
547.384	0.75
547.728	0.73
548.072	0.77
548.416	0.81
548.76	0.8
549.104	0.85
549.448	0.85
549.791	0.82
550.135	0.81
550.479	0.87
550.823	0.86
551.166	0.92
551.51	0.91
551.853	0.88
552.197	0.83
552.54	0.85
552.883	0.87
553.227	0.9
553.57	0.99
553.913	1.17
554.257	1.19
554.6	1.24
554.943	1.33
555.286	1.34
555.629	1.25
555.972	1.29
556.315	1.23
556.658	1.16
557.001	1.24
557.343	1.24
557.686	1.24
558.029	1.28
558.371	1.23
558.714	1.28
559.057	1.41
559.399	1.49
559.742	1.54
560.084	1.67
560.427	1.66
560.769	1.67
561.111	1.63
561.453	1.61
561.796	1.58
562.138	1.49
562.48	1.44
562.822	1.57
563.164	1.62
563.506	1.75
563.848	1.83
564.19	1.89
564.532	1.88
564.874	1.9
565.215	1.9
565.557	2.02
565.899	2.07
566.24	2.07
566.582	2.19
566.924	2.2
567.265	2.22
567.606	2.28
567.948	2.32
568.289	2.32
568.631	2.48
568.972	2.6
569.313	2.66
569.654	2.83
569.995	2.88
570.336	2.91
570.677	2.92
571.018	2.93
571.359	2.93
571.7	3.05
572.041	3.06
572.382	3.19
572.723	3.34
573.064	3.4
573.404	3.37
573.745	3.46
574.085	3.49
574.426	3.56
574.766	3.64
575.107	3.82
575.447	3.87
575.788	3.99
576.128	3.97
576.468	4.1
576.808	4.1
577.149	4.29
577.489	4.28
577.829	4.49
578.169	4.49
578.509	4.64
578.849	4.62
579.189	4.75
579.529	4.82
579.868	4.97
580.208	4.98
580.548	5.15
580.887	5.19
581.227	5.28
581.567	5.47
581.906	5.79
582.246	5.96
582.585	6.08
582.925	6.09
583.264	6.22
583.603	6.27
583.942	6.18
584.282	6.36
584.621	6.52
584.96	6.57
585.299	6.61
585.638	6.82
585.977	6.94
586.316	7.08
586.655	7.25
586.994	7.36
587.332	7.57
587.671	7.65
588.01	7.77
588.348	7.93
588.687	8.16
589.026	8.27
589.364	8.48
589.703	8.59
590.041	8.79
590.379	8.85
590.718	9.06
591.056	9.03
591.394	9.24
591.732	9.23
592.07	9.4
592.409	9.46
592.747	9.76
593.085	9.83
593.423	9.98
593.76	10.13
594.098	10.25
594.436	10.35
594.774	10.62
595.112	10.77
595.449	10.82
595.787	10.85
596.124	11.11
596.462	11.18
596.799	11.37
597.137	11.66
597.474	11.82
597.812	11.93
598.149	12.16
598.486	12.34
598.823	12.42
599.16	12.63
599.498	12.73
599.835	12.76
600.172	12.81
600.509	12.99
600.845	13.32
601.182	13.54
601.519	13.72
601.856	13.94
602.193	14
602.529	13.97
602.866	14.09
603.202	14.21
603.539	14.35
603.875	14.42
604.212	14.55
604.548	14.65
604.885	14.7
605.221	14.76
605.557	14.95
605.893	15.08
606.23	15.17
606.566	15.38
606.902	15.44
607.238	15.62
607.574	15.78
607.91	16
608.245	15.99
608.581	16.2
608.917	16.15
609.253	16.22
609.588	16.34
609.924	16.5
610.26	16.57
610.595	16.6
610.931	16.63
611.266	16.69
611.601	16.74
611.937	16.84
612.272	16.97
612.607	17.08
612.942	17.08
613.278	17.34
613.613	17.41
613.948	17.67
614.283	17.83
614.618	18.05
614.953	18.18
615.287	18.32
615.622	18.34
615.957	18.36
616.292	18.34
616.626	18.32
616.961	18.46
617.295	18.55
617.63	18.77
617.964	18.94
618.299	18.88
618.633	18.95
618.968	19
619.302	18.96
619.636	18.91
619.97	19
620.304	18.91
620.638	19.07
620.972	19.13
621.306	19.28
621.64	19.47
621.974	19.6
622.308	19.59
622.642	19.78
622.976	19.77
623.309	19.69
623.643	19.71
623.977	19.72
624.31	19.75
624.644	20.01
624.977	20.15
625.31	20.16
625.644	20.32
625.977	20.19
626.31	20.09
626.643	20.12
626.977	20.21
627.31	20.29
627.643	20.46
627.976	20.6
628.309	20.68
628.642	20.78
628.974	20.72
629.307	20.8
629.64	20.76
629.973	20.94
630.305	21
630.638	21.17
630.971	21.14
631.303	21.15
631.636	21.11
631.968	21.11
632.3	21
632.633	21.07
632.965	21.31
633.297	21.36
633.629	21.64
633.961	21.82
634.293	21.89
634.625	21.73
634.957	21.65
635.289	21.52
635.621	21.55
635.953	21.62
636.285	21.75
636.617	21.74
636.948	21.62
637.28	21.67
637.611	21.64
637.943	21.6
638.274	21.9
638.606	22.03
638.937	21.85
639.269	21.85
639.6	22.01
639.931	21.97
640.262	22.15
640.593	22.48
640.924	22.63
641.255	22.56
641.586	22.4
641.917	22.55
642.248	22.55
642.579	22.65
642.91	22.83
643.24	23.05
643.571	22.85
643.902	22.78
644.232	22.73
644.563	22.54
644.893	22.56
645.224	22.74
645.554	22.68
645.884	22.64
646.215	22.74
646.545	22.62
646.875	22.37
647.205	22.5
647.535	22.5
647.865	22.31
648.195	22.28
648.525	22.47
648.855	22.45
649.185	22.64
649.515	22.87
649.844	23.3
650.174	23.23
650.504	23.16
650.833	23.09
651.163	23.1
651.492	22.84
651.822	22.77
652.151	22.91
652.48	22.88
652.81	22.78
653.139	22.85
653.468	23.07
653.797	22.91
654.126	22.76
654.455	22.81
654.784	22.83
655.113	22.8
655.442	22.92
655.771	23.03
656.099	23.05
656.428	22.85
656.757	22.67
657.085	22.65
657.414	22.55
657.742	22.78
658.071	22.76
658.399	22.84
658.728	22.81
659.056	22.76
659.384	22.62
659.712	22.77
660.04	22.87
660.369	22.95
660.697	23.05
661.025	23.21
661.353	23.28
661.68	23.22
662.008	23.14
662.336	23.42
662.664	23.39
662.991	23.39
663.319	23.41
663.647	23.68
663.974	23.32
664.302	23.22
664.629	23.09
664.956	23.04
665.284	23.01
665.611	23.02
665.938	23.15
666.265	23.32
666.593	23.16
666.92	22.98
667.247	23.34
667.574	23.17
667.9	23.09
668.227	23.43
668.554	23.47
668.881	23.2
669.208	23.43
669.534	23.38
669.861	23.24
670.187	23.26
670.514	23.3
670.84	23.34
671.167	23.26
671.493	23.31
671.819	23.11
672.146	23.44
672.472	23.12
672.798	23.23
673.124	23.11
673.45	23.44
673.776	23.28
674.102	23.38
