Data from Piar-i3_Reflection_16-22-10-318.txt Node
Date: Tue Aug 16 16:22:10 CEST 2022
User: IDIV
Spectrometer: FLMS14958
Trigger mode: 0
Integration Time (sec): 1.000000E-1
Scans to average: 10
Electric dark correction enabled: true
Nonlinearity correction enabled: true
Boxcar width: 2
XAxis mode: Wavelengths
Number of Pixels in Spectrum: 2048
>>>>>Begin Spectral Data<<<<<
179.491	39.97
179.869	45.9
180.247	56.27
180.625	26.84
181.003	-3.86
181.381	389.91
181.759	-4589.55
182.136	920.86
182.514	194.51
182.892	403.29
183.27	190.98
183.647	-540.09
184.025	-1407.36
184.403	-727.19
184.78	276.49
185.158	428.82
185.536	656.9
185.913	271.49
186.291	240.88
186.668	19.4
187.046	-78.07
187.423	-17.94
187.801	-9.62
188.178	8.53
188.556	-6.55
188.933	15.62
189.31	14.19
189.688	18.61
190.065	20.66
190.442	22.9
190.82	9.79
191.197	4.55
191.574	0.88
191.951	-1.92
192.329	4.24
192.706	10.45
193.083	18.23
193.46	22.03
193.837	20.06
194.214	23.78
194.591	19.68
194.968	20.93
195.345	18.93
195.722	17.49
196.099	15.65
196.476	22.11
196.853	11.05
197.23	3.35
197.607	11.43
197.984	11.23
198.36	10.14
198.737	16.59
199.114	12.06
199.491	7.05
199.867	9.99
200.244	8.49
200.621	2.93
200.997	6.06
201.374	5.43
201.75	3.31
202.127	-3.48
202.504	-7.91
202.88	-9.76
203.257	-10.52
203.633	-5.66
204.01	3.13
204.386	21.71
204.762	25.08
205.139	23.48
205.515	14.5
205.891	12.76
206.268	2.86
206.644	4.37
207.02	11.33
207.396	17.88
207.773	23.13
208.149	28.11
208.525	28.4
208.901	33.19
209.277	22.89
209.653	17.45
210.029	11.28
210.405	1.49
210.781	-3.07
211.157	-5.15
211.533	-0.2
211.909	1.82
212.285	14.42
212.661	24.89
213.037	31.66
213.413	33.97
213.789	29.54
214.164	21.22
214.54	13.81
214.916	6.26
215.292	3.71
215.667	10.31
216.043	17.16
216.419	18.98
216.794	28.46
217.17	26.61
217.545	16.93
217.921	3.28
218.296	8.45
218.672	9.4
219.047	7
219.423	12.87
219.798	19.09
220.174	16.38
220.549	6.57
220.924	8.01
221.3	11.69
221.675	18.42
222.05	16.38
222.425	18.28
222.801	15.47
223.176	2.54
223.551	-9.37
223.926	-14.25
224.301	-14.35
224.676	-11.61
225.051	3.3
225.426	8.17
225.801	16.39
226.176	16.86
226.551	17.51
226.926	9.72
227.301	4.48
227.676	2.71
228.051	3.43
228.426	3.67
228.801	5.47
229.175	7.58
229.55	7.31
229.925	6.2
230.3	6.06
230.674	5.82
231.049	5.01
231.424	4.37
231.798	4.45
232.173	4.11
232.547	3.78
232.922	4.33
233.296	5.41
233.671	6.95
234.045	8.09
234.42	7.77
234.794	7.35
235.168	6.61
235.543	7.56
235.917	5.84
236.291	6.16
236.666	6
237.04	6.5
237.414	5.39
237.788	6.25
238.162	5.86
238.537	5.74
238.911	4.7
239.285	4.3
239.659	5.13
240.033	5.95
240.407	6.63
240.781	6.94
241.155	7
241.529	6.4
241.903	5.81
242.277	5.13
242.65	5.46
243.024	5.73
243.398	5.54
243.772	5.73
244.146	6.15
244.519	5.91
244.893	5.55
245.267	5.29
245.64	4.37
246.014	4.34
246.387	4.23
246.761	4.33
247.135	4.51
247.508	4.76
247.882	4.86
248.255	4.96
248.628	5.07
249.002	5.01
249.375	5.05
249.749	5.02
250.122	4.89
250.495	4.48
250.868	4.5
251.242	4.75
251.615	4.27
251.988	4.39
252.361	4.44
252.734	4.52
253.107	4.49
253.481	4.71
253.854	4.86
254.227	5.03
254.6	5.08
254.973	4.8
255.346	4.56
255.718	4.03
256.091	4.15
256.464	4.24
256.837	4.27
257.21	4.29
257.583	4.83
257.955	4.68
258.328	4.71
258.701	4.78
259.074	4.64
259.446	4.46
259.819	4.38
260.191	4.31
260.564	4.3
260.936	4.41
261.309	4.56
261.681	4.72
262.054	4.96
262.426	5.07
262.799	4.94
263.171	4.67
263.543	4.62
263.916	4.43
264.288	4.48
264.66	4.83
265.033	5.14
265.405	5.18
265.777	5.3
266.149	5.09
266.521	5.29
266.893	4.9
267.265	4.9
267.637	5
268.009	5.05
268.381	4.64
268.753	4.73
269.125	4.55
269.497	4.64
269.869	4.71
270.241	4.78
270.613	4.81
270.985	4.8
271.356	4.49
271.728	4.22
272.1	4.23
272.471	4.12
272.843	4.11
273.215	4.12
273.586	4.22
273.958	4.24
274.329	4.14
274.701	4.18
275.072	4.19
275.444	4.29
275.815	4.03
276.187	4.24
276.558	4.13
276.929	4.27
277.301	4.39
277.672	4.71
278.043	4.52
278.415	4.85
278.786	4.88
279.157	4.63
279.528	4.37
279.899	4.48
280.27	4.32
280.641	4.38
281.012	4.42
281.383	4.27
281.754	4.2
282.125	4.28
282.496	4.25
282.867	4.28
283.238	4.67
283.609	4.75
283.98	4.42
284.35	4.16
284.721	4.19
285.092	4.06
285.462	4.2
285.833	4.43
286.204	4.48
286.574	4.35
286.945	4.12
287.315	3.9
287.686	3.78
288.056	3.78
288.427	3.82
288.797	4.06
289.168	4.28
289.538	4.25
289.908	4.37
290.279	4.12
290.649	3.99
291.019	3.9
291.39	3.91
291.76	3.76
292.13	3.88
292.5	3.96
292.87	4.16
293.24	4.16
293.61	4.31
293.98	4.52
294.35	4.55
294.72	4.06
295.09	4.22
295.46	4.31
295.83	4.54
296.2	4.64
296.57	4.76
296.939	4.5
297.309	4.24
297.679	4.05
298.049	3.97
298.418	3.97
298.788	4.08
299.158	4.45
299.527	4.38
299.897	4.62
300.266	4.68
300.636	4.73
301.005	4.18
301.375	4.09
301.744	3.89
302.113	3.91
302.483	3.9
302.852	4.07
303.221	4.23
303.591	4.14
303.96	4.27
304.329	4.39
304.698	4.66
305.067	4.77
305.436	4.92
305.806	4.94
306.175	4.85
306.544	4.54
306.913	4.25
307.282	4.15
307.65	4.09
308.019	3.98
308.388	4.03
308.757	4.41
309.126	4.64
309.495	4.63
309.863	4.72
310.232	4.83
310.601	4.74
310.969	4.65
311.338	4.72
311.707	4.81
312.075	4.88
312.444	5.03
312.812	5.09
313.181	5.23
313.549	5.46
313.918	5.63
314.286	5.37
314.654	5.24
315.023	4.99
315.391	4.6
315.759	4.12
316.127	4.2
316.496	4.22
316.864	4.61
317.232	4.85
317.6	5.16
317.968	5.14
318.336	5.09
318.704	4.76
319.072	4.65
319.44	4.56
319.808	4.39
320.176	4.69
320.544	4.54
320.912	4.83
321.28	5.11
321.647	5.28
322.015	5.07
322.383	5.15
322.75	4.79
323.118	4.43
323.486	4.52
323.853	4.53
324.221	4.43
324.588	4.61
324.956	4.67
325.323	4.57
325.691	4.33
326.058	4.49
326.426	4.41
326.793	4.26
327.16	4.32
327.528	4.28
327.895	4.23
328.262	4.05
328.629	4.15
328.996	4.11
329.363	4.51
329.731	4.52
330.098	4.48
330.465	4.46
330.832	4.71
331.199	4.25
331.566	4.36
331.932	4.53
332.299	4.63
332.666	4.48
333.033	4.73
333.4	4.59
333.766	4.51
334.133	4.44
334.5	4.33
334.867	4.16
335.233	4.04
335.6	3.84
335.966	3.85
336.333	4.1
336.699	4.08
337.066	4.2
337.432	4.79
337.799	4.71
338.165	4.33
338.531	4.53
338.898	4.53
339.264	4.29
339.63	4.03
339.996	4.01
340.363	3.9
340.729	3.78
341.095	3.73
341.461	4.03
341.827	4.41
342.193	4.49
342.559	4.48
342.925	4.47
343.291	4.44
343.657	4.19
344.023	4.16
344.388	4.01
344.754	4.03
345.12	4.18
345.486	4.05
345.851	4.1
346.217	4.46
346.583	4.52
346.948	4.61
347.314	4.71
347.679	4.61
348.045	4.32
348.41	4.27
348.776	4.07
349.141	4.15
349.507	4.18
349.872	4.32
350.237	4.13
350.603	4.43
350.968	4.54
351.333	4.53
351.698	4.34
352.063	4.5
352.428	4.29
352.794	4.18
353.159	4.16
353.524	4.35
353.889	4.32
354.254	4.42
354.618	4.44
354.983	4.42
355.348	4.26
355.713	4.19
356.078	4.14
356.443	4.11
356.807	4.18
357.172	4.21
357.537	4.18
357.901	4.1
358.266	4.08
358.63	4.08
358.995	4.15
359.359	4.33
359.724	4.2
360.088	4.11
360.453	4.06
360.817	4.19
361.181	4.04
361.546	4.15
361.91	4.13
362.274	4.3
362.638	4.2
363.003	4.33
363.367	4.4
363.731	4.41
364.095	4.28
364.459	4.23
364.823	4.2
365.187	4.11
365.551	4.42
365.915	4.52
366.279	4.55
366.642	4.58
367.006	4.55
367.37	4.61
367.734	4.59
368.097	4.61
368.461	4.63
368.825	4.59
369.188	4.28
369.552	4.3
369.915	4.22
370.279	4.28
370.642	4.45
371.006	4.6
371.369	4.55
371.732	4.53
372.096	4.31
372.459	4.43
372.822	4.55
373.186	4.49
373.549	4.74
373.912	4.97
374.275	4.69
374.638	4.41
375.001	4.53
375.364	4.67
375.727	4.7
376.09	4.79
376.453	4.88
376.816	4.8
377.179	4.6
377.542	4.55
377.904	4.47
378.267	4.45
378.63	4.6
378.993	4.7
379.355	4.61
379.718	4.76
380.08	4.8
380.443	4.64
380.806	4.51
381.168	4.5
381.53	4.39
381.893	4.45
382.255	4.41
382.618	4.58
382.98	4.65
383.342	4.72
383.704	4.79
384.067	4.68
384.429	4.62
384.791	4.5
385.153	4.57
385.515	4.59
385.877	4.78
386.239	4.88
386.601	4.98
386.963	4.86
387.325	4.87
387.687	4.79
388.049	4.66
388.41	4.71
388.772	4.74
389.134	4.62
389.496	4.78
389.857	4.93
390.219	4.88
390.58	4.96
390.942	4.96
391.303	4.78
391.665	4.75
392.026	4.76
392.388	4.78
392.749	4.86
393.111	4.96
393.472	4.9
393.833	4.98
394.194	4.99
394.556	4.96
394.917	5.01
395.278	5.07
395.639	5.08
396	5.14
396.361	5.16
396.722	5.23
397.083	5.25
397.444	5.12
397.805	5.1
398.166	5.09
398.526	4.97
398.887	4.92
399.248	5.1
399.609	5.04
399.969	5.05
400.33	5.18
400.691	5.19
401.051	5.12
401.412	5.25
401.772	5.16
402.133	5.19
402.493	5.18
402.853	5.16
403.214	5.11
403.574	5.11
403.934	5.07
404.295	5.01
404.655	5.05
405.015	5
405.375	5.07
405.735	5.04
406.095	5.12
406.455	5.03
406.815	5.09
407.175	5.07
407.535	5.09
407.895	5.02
408.255	5.11
408.615	5.07
408.975	5.16
409.334	5.08
409.694	5.11
410.054	5.02
410.413	5.04
410.773	4.85
411.133	4.95
411.492	5
411.852	5.05
412.211	4.98
412.571	5.12
412.93	5.11
413.289	5.08
413.649	5.08
414.008	5.04
414.367	5.08
414.726	4.97
415.086	4.97
415.445	5
415.804	4.9
416.163	4.82
416.522	4.73
416.881	4.67
417.24	4.63
417.599	4.62
417.958	4.65
418.316	4.69
418.675	4.72
419.034	4.72
419.393	4.83
419.751	4.85
420.11	4.85
420.469	4.84
420.827	4.82
421.186	4.84
421.544	4.86
421.903	4.91
422.261	4.94
422.62	4.95
422.978	4.92
423.336	4.91
423.695	4.88
424.053	4.9
424.411	4.92
424.769	4.94
425.128	5
425.486	5.08
425.844	5.09
426.202	5.13
426.56	5.21
426.918	5.15
427.276	5.03
427.634	5.06
427.991	5.05
428.349	4.95
428.707	4.93
429.065	4.98
429.423	4.91
429.78	4.93
430.138	4.8
430.495	4.78
430.853	4.78
431.211	4.77
431.568	4.64
431.925	4.71
432.283	4.71
432.64	4.73
432.998	4.76
433.355	4.76
433.712	4.86
434.069	4.9
434.427	4.93
434.784	4.95
435.141	5.1
435.498	5.02
435.855	5.06
436.212	4.98
436.569	4.97
436.926	4.88
437.283	4.86
437.64	4.75
437.996	4.76
438.353	4.73
438.71	4.7
439.067	4.72
439.423	4.8
439.78	4.83
440.137	4.85
440.493	4.87
440.85	4.9
441.206	4.92
441.563	4.91
441.919	4.95
442.275	5.02
442.632	5.03
442.988	4.98
443.344	4.94
443.7	4.81
444.057	4.76
444.413	4.73
444.769	4.71
445.125	4.77
445.481	4.83
445.837	4.82
446.193	4.84
446.549	4.89
446.905	4.91
447.26	5.02
447.616	5.07
447.972	5.14
448.328	5.2
448.683	5.3
449.039	5.26
449.395	5.33
449.75	5.33
450.106	5.38
450.461	5.33
450.817	5.34
451.172	5.27
451.527	5.22
451.883	5.07
452.238	5.04
452.593	5.03
452.949	5.05
453.304	5.14
453.659	5.23
454.014	5.3
454.369	5.37
454.724	5.4
455.079	5.39
455.434	5.41
455.789	5.29
456.144	5.29
456.499	5.21
456.853	5.25
457.208	5.16
457.563	5.28
457.918	5.15
458.272	5.13
458.627	4.99
458.981	4.96
459.336	4.84
459.69	4.9
460.045	4.96
460.399	5.08
460.754	5.21
461.108	5.42
461.462	5.52
461.817	5.62
462.171	5.67
462.525	5.67
462.879	5.64
463.233	5.63
463.587	5.52
463.941	5.48
464.295	5.49
464.649	5.4
465.003	5.31
465.357	5.3
465.711	5.17
466.065	5.15
466.418	5.08
466.772	5.1
467.126	5.18
467.479	5.26
467.833	5.24
468.186	5.35
468.54	5.43
468.893	5.37
469.247	5.42
469.6	5.34
469.954	5.24
470.307	5.18
470.66	5.2
471.013	5.14
471.367	5.2
471.72	5.36
472.073	5.36
472.426	5.4
472.779	5.39
473.132	5.4
473.485	5.35
473.838	5.36
474.191	5.37
474.544	5.43
474.896	5.4
475.249	5.37
475.602	5.36
475.955	5.29
476.307	5.22
476.66	5.31
477.012	5.32
477.365	5.26
477.717	5.26
478.07	5.31
478.422	5.28
478.775	5.27
479.127	5.42
479.479	5.46
479.831	5.39
480.184	5.41
480.536	5.42
480.888	5.32
481.24	5.25
481.592	5.26
481.944	5.18
482.296	5.09
482.648	5.07
483	4.95
483.352	4.82
483.703	4.8
484.055	4.89
484.407	5
484.759	5.22
485.11	5.5
485.462	5.79
485.813	5.96
486.165	5.96
486.516	5.78
486.868	5.55
487.219	5.37
487.571	5.27
487.922	5.29
488.273	5.38
488.624	5.54
488.976	5.68
489.327	5.84
489.678	5.94
490.029	5.96
490.38	5.86
490.731	5.7
491.082	5.51
491.433	5.4
491.784	5.39
492.135	5.46
492.485	5.62
492.836	5.85
493.187	6.05
493.537	6.22
493.888	6.29
494.239	6.24
494.589	6.17
494.94	6.1
495.29	6.04
495.641	6
495.991	6.02
496.341	5.98
496.692	5.96
497.042	5.99
497.392	6.04
497.742	6.14
498.092	6.22
498.442	6.24
498.793	6.26
499.143	6.28
499.493	6.3
499.842	6.37
500.192	6.44
500.542	6.53
500.892	6.57
501.242	6.59
501.591	6.56
501.941	6.64
502.291	6.69
502.64	6.74
502.99	6.79
503.339	6.88
503.689	6.94
504.038	6.99
504.388	6.99
504.737	6.99
505.086	7.03
505.436	7.09
505.785	7.14
506.134	7.21
506.483	7.29
506.832	7.32
507.181	7.3
507.53	7.36
507.879	7.41
508.228	7.49
508.577	7.6
508.926	7.73
509.275	7.76
509.624	7.87
509.972	7.95
510.321	8
510.67	8.03
511.018	8.14
511.367	8.2
511.715	8.32
512.064	8.31
512.412	8.39
512.761	8.41
513.109	8.52
513.457	8.56
513.806	8.73
514.154	8.84
514.502	9.02
514.85	9.04
515.198	9.1
515.546	9.2
515.894	9.28
516.242	9.31
516.59	9.44
516.938	9.49
517.286	9.52
517.634	9.49
517.981	9.53
518.329	9.53
518.677	9.6
519.024	9.7
519.372	9.88
519.72	10.03
520.067	10.23
520.415	10.39
520.762	10.55
521.109	10.63
521.457	10.74
521.804	10.76
522.151	10.89
522.498	10.89
522.846	10.99
523.193	11.01
523.54	11.07
523.887	11.03
524.234	11.13
524.581	11.15
524.928	11.17
525.275	11.23
525.621	11.33
525.968	11.49
526.315	11.58
526.662	11.73
527.008	11.86
527.355	11.88
527.701	11.77
528.048	11.66
528.394	11.62
528.741	11.66
529.087	11.82
529.434	12.04
529.78	12.35
530.126	12.66
530.472	12.94
530.819	13.07
531.165	13.1
531.511	13.07
531.857	13.01
532.203	12.84
532.549	12.68
532.895	12.57
533.241	12.48
533.586	12.5
533.932	12.68
534.278	12.89
534.624	13.1
534.969	13.35
535.315	13.48
535.661	13.4
536.006	13.25
536.352	13.16
536.697	13.04
537.042	13.08
537.388	13.17
537.733	13.32
538.078	13.39
538.424	13.55
538.769	13.58
539.114	13.51
539.459	13.42
539.804	13.32
540.149	13.08
540.494	12.86
540.839	12.72
541.184	12.72
541.529	12.8
541.873	12.99
542.218	13.22
542.563	13.52
542.908	13.72
543.252	13.87
543.597	13.94
543.941	13.98
544.286	13.91
544.63	13.85
544.975	13.82
545.319	13.71
545.663	13.56
546.007	13.43
546.352	13.35
546.696	13.27
547.04	13.31
547.384	13.39
547.728	13.5
548.072	13.66
548.416	13.76
548.76	13.86
549.104	13.92
549.448	13.96
549.791	13.97
550.135	14.02
550.479	14.03
550.823	13.99
551.166	13.96
551.51	13.93
551.853	13.86
552.197	13.79
552.54	13.69
552.883	13.73
553.227	13.78
553.57	13.83
553.913	13.85
554.257	13.97
554.6	13.98
554.943	13.96
555.286	13.94
555.629	13.93
555.972	13.83
556.315	13.8
556.658	13.78
557.001	13.78
557.343	13.79
557.686	13.87
558.029	13.91
558.371	13.87
558.714	13.88
559.057	13.84
559.399	13.83
559.742	13.81
560.084	13.81
560.427	13.75
560.769	13.7
561.111	13.65
561.453	13.55
561.796	13.55
562.138	13.58
562.48	13.6
562.822	13.53
563.164	13.6
563.506	13.54
563.848	13.46
564.19	13.47
564.532	13.42
564.874	13.36
565.215	13.27
565.557	13.2
565.899	13.03
566.24	13.01
566.582	12.95
566.924	12.95
567.265	13.04
567.606	13.19
567.948	13.33
568.289	13.37
568.631	13.36
568.972	13.24
569.313	13.15
569.654	13.02
569.995	12.99
570.336	12.95
570.677	12.86
571.018	12.77
571.359	12.62
571.7	12.46
572.041	12.43
572.382	12.46
572.723	12.48
573.064	12.53
573.404	12.65
573.745	12.66
574.085	12.67
574.426	12.58
574.766	12.51
575.107	12.33
575.447	12.23
575.788	12.18
576.128	12.21
576.468	12.22
576.808	12.35
577.149	12.39
577.489	12.39
577.829	12.25
578.169	12.29
578.509	12.16
578.849	12.08
579.189	12.04
579.529	12.13
579.868	11.95
580.208	11.89
580.548	11.88
580.887	11.84
581.227	11.64
581.567	11.73
581.906	11.75
582.246	11.75
582.585	11.69
582.925	11.72
583.264	11.6
583.603	11.6
583.942	11.53
584.282	11.46
584.621	11.45
584.96	11.4
585.299	11.38
585.638	11.41
585.977	11.46
586.316	11.43
586.655	11.42
586.994	11.4
587.332	11.34
587.671	11.33
588.01	11.36
588.348	11.38
588.687	11.38
589.026	11.31
589.364	11.24
589.703	11.21
590.041	11.15
590.379	11.18
590.718	11.24
591.056	11.29
591.394	11.34
591.732	11.29
592.07	11.21
592.409	11.24
592.747	11.24
593.085	11.1
593.423	11.26
593.76	11.16
594.098	11.07
594.436	10.99
594.774	11.04
595.112	10.96
595.449	11.03
595.787	10.99
596.124	10.92
596.462	10.86
596.799	10.78
597.137	10.76
597.474	10.82
597.812	10.89
598.149	11.02
598.486	11.28
598.823	11.35
599.16	11.41
599.498	11.54
599.835	11.42
600.172	11.18
600.509	11.13
600.845	11.07
601.182	10.88
601.519	10.84
601.856	10.79
602.193	10.69
602.529	10.64
602.866	10.64
603.202	10.6
603.539	10.58
603.875	10.59
604.212	10.57
604.548	10.52
604.885	10.52
605.221	10.62
605.557	10.74
605.893	10.88
606.23	11.06
606.566	11.16
606.902	11.11
607.238	10.99
607.574	10.84
607.91	10.63
608.245	10.5
608.581	10.4
608.917	10.28
609.253	10.19
609.588	10.14
609.924	10.18
610.26	10.24
610.595	10.3
610.931	10.43
611.266	10.47
611.601	10.5
611.937	10.62
612.272	10.64
612.607	10.56
612.942	10.6
613.278	10.63
613.613	10.45
613.948	10.37
614.283	10.36
614.618	10.45
614.953	10.5
615.287	10.53
615.622	10.55
615.957	10.48
616.292	10.25
616.626	10.07
616.961	9.96
617.295	9.96
617.63	9.91
617.964	9.99
618.299	10.02
618.633	9.91
618.968	9.94
619.302	10.04
619.636	10.09
619.97	10
620.304	10.08
620.638	10.03
620.972	9.98
621.306	9.96
621.64	9.89
621.974	9.85
622.308	9.79
622.642	9.8
622.976	9.85
623.309	10.08
623.643	10.09
623.977	10.18
624.31	10.19
624.644	10.04
624.977	9.88
625.31	9.81
625.644	9.56
625.977	9.49
626.31	9.44
626.643	9.44
626.977	9.43
627.31	9.6
627.643	9.64
627.976	9.8
628.309	9.86
628.642	9.95
628.974	10
629.307	10.03
629.64	9.87
629.973	9.93
630.305	10
630.638	10
630.971	9.96
631.303	9.95
631.636	9.83
631.968	9.84
632.3	9.82
632.633	9.81
632.965	9.86
633.297	9.89
633.629	9.78
633.961	9.63
634.293	9.63
634.625	9.77
634.957	9.74
635.289	9.71
635.621	9.75
635.953	9.75
636.285	9.58
636.617	9.61
636.948	9.59
637.28	9.67
637.611	9.64
637.943	9.52
638.274	9.35
638.606	9.43
638.937	9.34
639.269	9.28
639.6	9.23
639.931	9.26
640.262	9.17
640.593	9.04
640.924	9.11
641.255	9.18
641.586	9.28
641.917	9.19
642.248	9.07
642.579	9.02
642.91	8.98
643.24	8.84
643.571	8.77
643.902	8.92
644.232	8.84
644.563	8.86
644.893	8.66
645.224	8.58
645.554	8.39
645.884	8.22
646.215	8.19
646.545	8.35
646.875	8.33
647.205	8.14
647.535	8.02
647.865	7.77
648.195	7.67
648.525	7.62
648.855	7.64
649.185	7.64
649.515	7.61
649.844	7.57
650.174	7.49
650.504	7.45
650.833	7.43
651.163	7.46
651.492	7.49
651.822	7.61
652.151	7.77
652.48	7.84
652.81	7.85
653.139	7.76
653.468	7.74
653.797	7.69
654.126	7.59
654.455	7.61
654.784	7.54
655.113	7.64
655.442	7.73
655.771	7.65
656.099	7.61
656.428	7.48
656.757	7.33
657.085	7.22
657.414	7.32
657.742	7.35
658.071	7.65
658.399	7.51
658.728	7.5
659.056	7.52
659.384	7.45
659.712	7.27
660.04	7.43
660.369	7.43
660.697	7.28
661.025	7.29
661.353	7.27
661.68	7.16
662.008	7.17
662.336	7.38
662.664	7.46
662.991	7.53
663.319	7.72
663.647	7.69
663.974	7.51
664.302	7.29
664.629	7.32
664.956	7.25
665.284	7.25
665.611	7.4
665.938	7.6
666.265	7.48
666.593	7.47
666.92	7.5
667.247	7.47
667.574	7.49
667.9	7.32
668.227	7.24
668.554	7.35
668.881	7.25
669.208	7.22
669.534	7.46
669.861	7.4
670.187	7.3
670.514	7.35
670.84	7.18
671.167	6.92
671.493	7.01
671.819	7.12
672.146	7.11
672.472	7.29
672.798	7.67
673.124	7.57
673.45	7.42
673.776	7.62
674.102	7.77
674.428	7.79
674.754	8.02
