Data from Psg-i1_Reflection_15-15-53-460.txt Node
Date: Tue Aug 16 15:15:53 CEST 2022
User: IDIV
Spectrometer: FLMS14958
Trigger mode: 0
Integration Time (sec): 1.000000E-1
Scans to average: 10
Electric dark correction enabled: true
Nonlinearity correction enabled: true
Boxcar width: 2
XAxis mode: Wavelengths
Number of Pixels in Spectrum: 2048
>>>>>Begin Spectral Data<<<<<
179.491	454.69
179.869	-908.21
180.247	-2410.22
180.625	-145.69
181.003	-56.41
181.381	-70.6
181.759	-367.46
182.136	1690.13
182.514	266.51
182.892	87.23
183.27	93.3
183.647	-74.99
184.025	899.27
184.403	124.71
184.78	673.45
185.158	1834.66
185.536	-34.55
185.913	-868.62
186.291	480.65
186.668	190.94
187.046	-93.24
187.423	78.45
187.801	81.99
188.178	43.55
188.556	21.19
188.933	18.72
189.31	22.42
189.688	29.72
190.065	38.05
190.442	43.81
190.82	33.71
191.197	34.91
191.574	11.58
191.951	4.8
192.329	0.48
192.706	9.74
193.083	1.06
193.46	16.89
193.837	25.89
194.214	38.23
194.591	38.19
194.968	49.26
195.345	52.24
195.722	34.51
196.099	33.71
196.476	32.58
196.853	25.36
197.23	18.72
197.607	26.81
197.984	28.39
198.36	31.51
198.737	31.95
199.114	37.76
199.491	32.93
199.867	17.16
200.244	13.94
200.621	18.22
200.997	11.45
201.374	6.1
201.75	9.33
202.127	0.48
202.504	-1.14
202.88	3.53
203.257	2.55
203.633	1.24
204.01	5.51
204.386	3.09
204.762	6.83
205.139	17.64
205.515	19.68
205.891	15.49
206.268	16.95
206.644	11.46
207.02	9.09
207.396	14.18
207.773	26.89
208.149	28.43
208.525	29.71
208.901	24.59
209.277	15.46
209.653	-6.4
210.029	-7.33
210.405	-7.54
210.781	-3.62
211.157	1.43
211.533	24.1
211.909	34.47
212.285	36.93
212.661	40.42
213.037	41.18
213.413	39.81
213.789	24.68
214.164	14.66
214.54	7.79
214.916	6.46
215.292	4.86
215.667	5.87
216.043	12.91
216.419	10.87
216.794	15.07
217.17	21.43
217.545	10.56
217.921	11.26
218.296	14.07
218.672	17.93
219.047	16.12
219.423	27.98
219.798	26.99
220.174	27.65
220.549	16.93
220.924	13.47
221.3	11.09
221.675	9.52
222.05	10.69
222.425	19.91
222.801	14.77
223.176	18.56
223.551	19.53
223.926	16.28
224.301	10.47
224.676	14.24
225.051	7.07
225.426	8.3
225.801	10.75
226.176	8.33
226.551	6.96
226.926	7.48
227.301	7.26
227.676	5.16
228.051	4.55
228.426	4.5
228.801	4.84
229.175	4.65
229.55	4.49
229.925	4.63
230.3	5.32
230.674	6.6
231.049	5.58
231.424	4.1
231.798	3.57
232.173	1.51
232.547	-1.29
232.922	-0.19
233.296	2.25
233.671	2.35
234.045	3.82
234.42	4.65
234.794	3.14
235.168	2.6
235.543	2.95
235.917	2.46
236.291	3.31
236.666	4.83
237.04	5.37
237.414	5.99
237.788	6.26
238.162	4.41
238.537	3.43
238.911	2.44
239.285	1.18
239.659	0.19
240.033	0.86
240.407	1.19
240.781	2.06
241.155	2.14
241.529	2.55
241.903	2.51
242.277	2.26
242.65	1.79
243.024	1.72
243.398	1.84
243.772	1.67
244.146	1.7
244.519	2.02
244.893	2.46
245.267	2.51
245.64	2.75
246.014	2.57
246.387	2.12
246.761	1.56
247.135	1.41
247.508	1.27
247.882	1.17
248.255	1.11
248.628	1.1
249.002	1.11
249.375	1.13
249.749	1.38
250.122	1.67
250.495	1.74
250.868	1.84
251.242	2.12
251.615	2.07
251.988	1.79
252.361	1.72
252.734	1.59
253.107	1.2
253.481	1.16
253.854	1.15
254.227	1.7
254.6	1.6
254.973	1.81
255.346	1.67
255.718	1.82
256.091	1.42
256.464	1.82
256.837	2.29
257.21	2.27
257.583	2.29
257.955	2.54
258.328	2.19
258.701	1.84
259.074	1.47
259.446	1.1
259.819	0.88
260.191	0.92
260.564	0.96
260.936	1.15
261.309	1.26
261.681	1.34
262.054	1.5
262.426	1.63
262.799	1.45
263.171	1.43
263.543	1.59
263.916	1.31
264.288	1.14
264.66	1.24
265.033	1.49
265.405	1.43
265.777	1.72
266.149	1.38
266.521	1.26
266.893	1.24
267.265	1.37
267.637	1.14
268.009	1.4
268.381	1.51
268.753	1.46
269.125	1.09
269.497	1.09
269.869	1.13
270.241	0.93
270.613	1.12
270.985	1.42
271.356	1.61
271.728	1.82
272.1	1.98
272.471	1.63
272.843	1.45
273.215	1.48
273.586	1.17
273.958	1.16
274.329	1.49
274.701	1.67
275.072	1.36
275.444	1.46
275.815	1.23
276.187	1.04
276.558	0.87
276.929	1.33
277.301	1.46
277.672	1.64
278.043	1.44
278.415	1.67
278.786	1.42
279.157	1.5
279.528	1.37
279.899	1.62
280.27	1.63
280.641	1.8
281.012	1.52
281.383	1.78
281.754	1.67
282.125	1.53
282.496	1.5
282.867	1.5
283.238	1.44
283.609	1.42
283.98	1.57
284.35	1.25
284.721	1.38
285.092	1.44
285.462	1.45
285.833	1.44
286.204	1.39
286.574	1.21
286.945	1.14
287.315	1.27
287.686	1.07
288.056	1.32
288.427	1.5
288.797	1.6
289.168	1.53
289.538	1.57
289.908	1.52
290.279	1.37
290.649	1.3
291.019	1.33
291.39	1.31
291.76	1.43
292.13	1.49
292.5	1.26
292.87	1.37
293.24	1.46
293.61	1.22
293.98	1.49
294.35	1.66
294.72	1.27
295.09	1.18
295.46	1.42
295.83	1.26
296.2	1.16
296.57	1.3
296.939	1.25
297.309	1.2
297.679	1.09
298.049	1.19
298.418	1.11
298.788	1.21
299.158	1.19
299.527	1.25
299.897	1.09
300.266	1.36
300.636	1.37
301.005	1.26
301.375	1.02
301.744	1.27
302.113	1.18
302.483	1.11
302.852	1.22
303.221	1.38
303.591	1.14
303.96	1.24
304.329	1.28
304.698	1.3
305.067	1.32
305.436	1.43
305.806	1.61
306.175	1.52
306.544	1.67
306.913	1.73
307.282	1.68
307.65	1.59
308.019	1.74
308.388	1.54
308.757	1.6
309.126	1.4
309.495	1.1
309.863	1.01
310.232	1.01
310.601	1.1
310.969	1.37
311.338	1.64
311.707	1.54
312.075	1.48
312.444	1.37
312.812	1.41
313.181	1.25
313.549	1.34
313.918	1.42
314.286	1.56
314.654	1.44
315.023	1.42
315.391	1.4
315.759	1.28
316.127	1.06
316.496	1.03
316.864	1.2
317.232	1.25
317.6	1.34
317.968	1.47
318.336	1.5
318.704	1.35
319.072	1.31
319.44	1.21
319.808	1.4
320.176	1.18
320.544	1.01
320.912	1.3
321.28	1.68
321.647	1.78
322.015	2.25
322.383	2.2
322.75	1.89
323.118	1.76
323.486	1.66
323.853	1.58
324.221	1.71
324.588	1.8
324.956	1.7
325.323	1.54
325.691	1.32
326.058	1.05
326.426	1.01
326.793	1.14
327.16	0.9
327.528	1.03
327.895	1.26
328.262	1.2
328.629	1.18
328.996	1.89
329.363	1.77
329.731	1.84
330.098	1.86
330.465	1.83
330.832	1.31
331.199	1.09
331.566	1.11
331.932	1.24
332.299	1.49
332.666	1.45
333.033	1.85
333.4	1.87
333.766	1.73
334.133	1.45
334.5	1.72
334.867	1.48
335.233	1.54
335.6	1.73
335.966	1.62
336.333	1.35
336.699	1.54
337.066	1.23
337.432	1.11
337.799	1.17
338.165	1.42
338.531	1.08
338.898	1.35
339.264	1.49
339.63	1.53
339.996	1.24
340.363	1.39
340.729	1.22
341.095	0.86
341.461	0.7
341.827	0.88
342.193	1.19
342.559	1.3
342.925	1.75
343.291	2.18
343.657	2.21
344.023	1.88
344.388	1.73
344.754	1.39
345.12	1.09
345.486	1.1
345.851	1.18
346.217	1.27
346.583	1.4
346.948	1.32
347.314	1.3
347.679	1.28
348.045	1.35
348.41	1.34
348.776	1.43
349.141	1.19
349.507	1.09
349.872	0.92
350.237	0.92
350.603	0.64
350.968	0.97
351.333	1.05
351.698	1
352.063	1.31
352.428	1.55
352.794	1.46
353.159	1.39
353.524	1.52
353.889	1.27
354.254	1.25
354.618	1.19
354.983	1.41
355.348	1.21
355.713	1.35
356.078	1.35
356.443	1.47
356.807	1.41
357.172	1.56
357.537	1.41
357.901	1.43
358.266	1.42
358.63	1.23
358.995	1.13
359.359	1.21
359.724	1.33
360.088	1.39
360.453	1.47
360.817	1.56
361.181	1.42
361.546	1.43
361.91	1.21
362.274	1.23
362.638	1.22
363.003	1.18
363.367	1.06
363.731	1.14
364.095	1.33
364.459	1.34
364.823	1.41
365.187	1.55
365.551	1.59
365.915	1.5
366.279	1.54
366.642	1.49
367.006	1.34
367.37	1.36
367.734	1.25
368.097	1.27
368.461	1.55
368.825	1.63
369.188	1.69
369.552	1.66
369.915	1.85
370.279	1.69
370.642	1.66
371.006	1.76
371.369	1.84
371.732	1.57
372.096	1.52
372.459	1.61
372.822	1.47
373.186	1.57
373.549	1.78
373.912	2.07
374.275	1.88
374.638	1.95
375.001	1.75
375.364	1.55
375.727	1.48
376.09	1.56
376.453	1.6
376.816	1.72
377.179	1.75
377.542	1.74
377.904	1.89
378.267	1.81
378.63	1.78
378.993	1.84
379.355	1.76
379.718	1.76
380.08	1.83
380.443	1.98
380.806	1.97
381.168	1.94
381.53	1.73
381.893	1.82
382.255	1.73
382.618	1.65
382.98	1.65
383.342	1.8
383.704	1.75
384.067	1.73
384.429	1.8
384.791	1.8
385.153	1.64
385.515	1.63
385.877	1.68
386.239	1.69
386.601	1.71
386.963	1.73
387.325	1.76
387.687	1.69
388.049	1.65
388.41	1.71
388.772	1.84
389.134	1.68
389.496	1.79
389.857	1.8
390.219	1.71
390.58	1.83
390.942	2.04
391.303	2.03
391.665	2.19
392.026	2.21
392.388	2.08
392.749	2.01
393.111	2
393.472	1.81
393.833	1.86
394.194	1.95
394.556	2.08
394.917	2.06
395.278	2.17
395.639	2.09
396	2.08
396.361	2.02
396.722	2.06
397.083	2.01
397.444	2.07
397.805	2
398.166	1.93
398.526	1.87
398.887	1.98
399.248	1.99
399.609	2.18
399.969	2.29
400.33	2.46
400.691	2.42
401.051	2.46
401.412	2.31
401.772	2.2
402.133	2.12
402.493	2.16
402.853	2.13
403.214	2.27
403.574	2.26
403.934	2.28
404.295	2.24
404.655	2.28
405.015	2.22
405.375	2.3
405.735	2.16
406.095	2.13
406.455	2.04
406.815	1.97
407.175	1.89
407.535	2.05
407.895	2.06
408.255	2.29
408.615	2.35
408.975	2.45
409.334	2.32
409.694	2.4
410.054	2.36
410.413	2.31
410.773	2.21
411.133	2.35
411.492	2.31
411.852	2.17
412.211	2.12
412.571	2.15
412.93	2.1
413.289	2.1
413.649	1.97
414.008	2.07
414.367	2.06
414.726	2.01
415.086	2.14
415.445	2.21
415.804	2.18
416.163	2.23
416.522	2.29
416.881	2.15
417.24	2.26
417.599	2.26
417.958	2.32
418.316	2.25
418.675	2.23
419.034	2.2
419.393	2.16
419.751	2.12
420.11	2.14
420.469	2.21
420.827	2.21
421.186	2.26
421.544	2.27
421.903	2.28
422.261	2.27
422.62	2.21
422.978	2.18
423.336	2.15
423.695	2.16
424.053	2.18
424.411	2.2
424.769	2.24
425.128	2.27
425.486	2.28
425.844	2.29
426.202	2.3
426.56	2.31
426.918	2.27
427.276	2.29
427.634	2.25
427.991	2.32
428.349	2.27
428.707	2.31
429.065	2.34
429.423	2.38
429.78	2.29
430.138	2.29
430.495	2.29
430.853	2.21
431.211	2.2
431.568	2.23
431.925	2.31
432.283	2.27
432.64	2.3
432.998	2.33
433.355	2.32
433.712	2.28
434.069	2.29
434.427	2.35
434.784	2.42
435.141	2.5
435.498	2.53
435.855	2.68
436.212	2.58
436.569	2.52
436.926	2.49
437.283	2.44
437.64	2.31
437.996	2.32
438.353	2.29
438.71	2.25
439.067	2.24
439.423	2.27
439.78	2.33
440.137	2.36
440.493	2.41
440.85	2.48
441.206	2.46
441.563	2.44
441.919	2.38
442.275	2.33
442.632	2.31
442.988	2.32
443.344	2.37
443.7	2.4
444.057	2.5
444.413	2.48
444.769	2.44
445.125	2.44
445.481	2.48
445.837	2.48
446.193	2.5
446.549	2.54
446.905	2.51
447.26	2.53
447.616	2.53
447.972	2.56
448.328	2.54
448.683	2.54
449.039	2.56
449.395	2.55
449.75	2.5
450.106	2.52
450.461	2.61
450.817	2.58
451.172	2.54
451.527	2.69
451.883	2.74
452.238	2.79
452.593	2.81
452.949	2.81
453.304	2.74
453.659	2.66
454.014	2.63
454.369	2.68
454.724	2.76
455.079	2.82
455.434	2.97
455.789	2.91
456.144	2.92
456.499	2.91
456.853	2.95
457.208	2.9
457.563	3
457.918	2.99
458.272	2.99
458.627	2.99
458.981	2.94
459.336	2.9
459.69	2.91
460.045	2.87
460.399	2.89
460.754	2.94
461.108	2.96
461.462	2.95
461.817	2.94
462.171	2.95
462.525	2.92
462.879	2.9
463.233	2.89
463.587	2.9
463.941	2.8
464.295	2.79
464.649	2.76
465.003	3
465.357	2.98
465.711	3.07
466.065	3.06
466.418	3.13
466.772	2.93
467.126	2.99
467.479	2.93
467.833	2.9
468.186	2.85
468.54	2.94
468.893	2.93
469.247	3.01
469.6	3.07
469.954	3.13
470.307	3.15
470.66	3.19
471.013	3.14
471.367	3.11
471.72	3.06
472.073	2.95
472.426	2.87
472.779	2.85
473.132	2.88
473.485	2.9
473.838	2.97
474.191	3.14
474.544	3.13
474.896	3.12
475.249	3.12
475.602	3.11
475.955	2.97
476.307	3.05
476.66	3.06
477.012	3.07
477.365	3.12
477.717	3.1
478.07	3.07
478.422	3.14
478.775	3.14
479.127	3.1
479.479	3.14
479.831	3.17
480.184	3.11
480.536	3.05
480.888	2.98
481.24	2.99
481.592	2.97
481.944	3.02
482.296	3.06
482.648	3.09
483	3.09
483.352	3.07
483.703	3.04
484.055	3.03
484.407	3.04
484.759	3.04
485.11	3.06
485.462	3.08
485.813	3.1
486.165	3.1
486.516	3.13
486.868	3.11
487.219	3.08
487.571	3.09
487.922	3.12
488.273	3.13
488.624	3.16
488.976	3.21
489.327	3.27
489.678	3.28
490.029	3.34
490.38	3.39
490.731	3.38
491.082	3.35
491.433	3.32
491.784	3.27
492.135	3.3
492.485	3.34
492.836	3.35
493.187	3.45
493.537	3.53
493.888	3.53
494.239	3.56
494.589	3.64
494.94	3.64
495.29	3.69
495.641	3.76
495.991	3.76
496.341	3.72
496.692	3.74
497.042	3.76
497.392	3.79
497.742	3.84
498.092	3.93
498.442	3.96
498.793	4.01
499.143	4.03
499.493	4.11
499.842	4.15
500.192	4.18
500.542	4.21
500.892	4.23
501.242	4.27
501.591	4.28
501.941	4.3
502.291	4.28
502.64	4.33
502.99	4.35
503.339	4.41
503.689	4.5
504.038	4.64
504.388	4.72
504.737	4.79
505.086	4.89
505.436	4.99
505.785	4.99
506.134	5.01
506.483	5.04
506.832	5.09
507.181	5.08
507.53	5.18
507.879	5.29
508.228	5.35
508.577	5.36
508.926	5.55
509.275	5.58
509.624	5.63
509.972	5.76
510.321	5.84
510.67	5.88
511.018	6
511.367	6.14
511.715	6.17
512.064	6.29
512.412	6.34
512.761	6.44
513.109	6.52
513.457	6.61
513.806	6.67
514.154	6.75
514.502	6.86
514.85	6.91
515.198	7.06
515.546	7.19
515.894	7.33
516.242	7.39
516.59	7.54
516.938	7.58
517.286	7.67
517.634	7.73
517.981	7.83
518.329	7.9
518.677	8.02
519.024	8.09
519.372	8.17
519.72	8.23
520.067	8.35
520.415	8.45
520.762	8.59
521.109	8.72
521.457	8.83
521.804	8.94
522.151	9.06
522.498	9.16
522.846	9.27
523.193	9.38
523.54	9.42
523.887	9.55
524.234	9.58
524.581	9.63
524.928	9.74
525.275	9.87
525.621	9.92
525.968	9.99
526.315	10.03
526.662	10.07
527.008	10.09
527.355	10.11
527.701	10.2
528.048	10.31
528.394	10.39
528.741	10.5
529.087	10.55
529.434	10.61
529.78	10.66
530.126	10.73
530.472	10.76
530.819	10.87
531.165	10.91
531.511	11.03
531.857	11.12
532.203	11.1
532.549	11.1
532.895	11.17
533.241	11.18
533.586	11.16
533.932	11.22
534.278	11.25
534.624	11.23
534.969	11.26
535.315	11.33
535.661	11.36
536.006	11.41
536.352	11.52
536.697	11.53
537.042	11.59
537.388	11.67
537.733	11.69
538.078	11.71
538.424	11.74
538.769	11.72
539.114	11.75
539.459	11.78
539.804	11.77
540.149	11.85
540.494	11.85
540.839	11.86
541.184	11.94
541.529	11.99
541.873	11.99
542.218	12.08
542.563	12.13
542.908	12.14
543.252	12.15
543.597	12.21
543.941	12.22
544.286	12.24
544.63	12.32
544.975	12.45
545.319	12.63
545.663	12.75
546.007	12.85
546.352	12.86
546.696	12.79
547.04	12.67
547.384	12.54
547.728	12.53
548.072	12.51
548.416	12.55
548.76	12.58
549.104	12.62
549.448	12.43
549.791	12.4
550.135	12.38
550.479	12.32
550.823	12.28
551.166	12.35
551.51	12.33
551.853	12.25
552.197	12.24
552.54	12.25
552.883	12.31
553.227	12.29
553.57	12.25
553.913	12.23
554.257	12.16
554.6	11.99
554.943	11.96
555.286	12.06
555.629	12.09
555.972	12.16
556.315	12.34
556.658	12.25
557.001	12.23
557.343	12.17
557.686	12.12
558.029	12.08
558.371	12.17
558.714	12.09
559.057	12.04
559.399	12.12
559.742	12.02
560.084	11.97
560.427	11.87
560.769	11.86
561.111	11.7
561.453	11.71
561.796	11.65
562.138	11.65
562.48	11.57
562.822	11.57
563.164	11.54
563.506	11.58
563.848	11.57
564.19	11.61
564.532	11.6
564.874	11.53
565.215	11.41
565.557	11.36
565.899	11.26
566.24	11.19
566.582	11.11
566.924	11.14
567.265	11.11
567.606	11.14
567.948	11.12
568.289	11.12
568.631	10.95
568.972	10.94
569.313	10.82
569.654	10.73
569.995	10.65
570.336	10.62
570.677	10.57
571.018	10.59
571.359	10.67
571.7	10.63
572.041	10.61
572.382	10.51
572.723	10.41
573.064	10.2
573.404	10.15
573.745	10.14
574.085	10.13
574.426	10.12
574.766	10.2
575.107	10.2
575.447	10.2
575.788	10.21
576.128	10.22
576.468	10.15
576.808	10.06
577.149	9.99
577.489	9.98
577.829	9.88
578.169	9.9
578.509	9.86
578.849	9.93
579.189	9.86
579.529	9.86
579.868	9.76
580.208	9.76
580.548	9.66
580.887	9.56
581.227	9.64
581.567	9.51
581.906	9.52
582.246	9.46
582.585	9.38
582.925	9.31
583.264	9.39
583.603	9.45
583.942	9.46
584.282	9.47
584.621	9.31
584.96	9.33
585.299	9.2
585.638	9.16
585.977	9.17
586.316	9.21
586.655	9.18
586.994	9.17
587.332	9.15
587.671	9.07
588.01	8.96
588.348	9
588.687	9.03
589.026	8.93
589.364	8.92
589.703	9
590.041	8.92
590.379	8.88
590.718	8.93
591.056	9.01
591.394	8.92
591.732	8.8
592.07	8.78
592.409	8.71
592.747	8.7
593.085	8.73
593.423	8.74
593.76	8.72
594.098	8.76
594.436	8.61
594.774	8.54
595.112	8.52
595.449	8.38
595.787	8.39
596.124	8.41
596.462	8.4
596.799	8.46
597.137	8.51
597.474	8.48
597.812	8.49
598.149	8.48
598.486	8.46
598.823	8.5
599.16	8.49
599.498	8.49
599.835	8.56
600.172	8.46
600.509	8.37
600.845	8.35
601.182	8.37
601.519	8.3
601.856	8.26
602.193	8.23
602.529	8.17
602.866	8.22
603.202	8.21
603.539	8.2
603.875	8.22
604.212	8.22
604.548	8.1
604.885	8.19
605.221	8.24
605.557	8.23
605.893	8.29
606.23	8.31
606.566	8.24
606.902	8.19
607.238	8.33
607.574	8.27
607.91	8.29
608.245	8.31
608.581	8.22
608.917	8.14
609.253	8.07
609.588	8.05
609.924	8.11
610.26	8.28
610.595	8.33
610.931	8.54
611.266	8.69
611.601	8.63
611.937	8.64
612.272	8.55
612.607	8.4
612.942	8.36
613.278	8.32
613.613	8.26
613.948	8.19
614.283	8.14
614.618	7.93
614.953	7.77
615.287	7.57
615.622	7.61
615.957	7.72
616.292	7.8
616.626	7.88
616.961	7.93
617.295	7.71
617.63	7.4
617.964	7.34
618.299	7.21
618.633	7.23
618.968	7.24
619.302	7.44
619.636	7.4
619.97	7.39
620.304	7.22
620.638	7.23
620.972	7.06
621.306	6.98
621.64	6.99
621.974	6.99
622.308	6.94
622.642	6.99
622.976	7.01
623.309	7.01
623.643	7
623.977	7.12
624.31	6.98
624.644	7.04
624.977	7
625.31	7.16
625.644	7.13
625.977	7.36
626.31	7.26
626.643	7.29
626.977	7.16
627.31	7.08
627.643	7.04
627.976	7.14
628.309	7.1
628.642	7.05
628.974	7.1
629.307	7.11
629.64	7.05
629.973	7.07
630.305	7.25
630.638	7.22
630.971	7.09
631.303	7.02
631.636	7.08
631.968	7.01
632.3	7.13
632.633	7.06
632.965	7.02
633.297	6.99
633.629	6.91
633.961	6.8
634.293	6.86
634.625	6.99
634.957	6.82
635.289	6.94
635.621	6.89
635.953	6.83
636.285	6.75
636.617	6.9
636.948	6.73
637.28	6.68
637.611	6.75
637.943	6.63
638.274	6.53
638.606	6.51
638.937	6.51
639.269	6.45
639.6	6.34
639.931	6.32
640.262	6.28
640.593	6.14
640.924	5.94
641.255	5.95
641.586	5.71
641.917	5.58
642.248	5.65
642.579	5.81
642.91	5.79
643.24	5.84
643.571	5.93
643.902	5.98
644.232	5.9
644.563	5.86
644.893	6.01
645.224	5.95
645.554	5.74
645.884	5.66
646.215	5.66
646.545	5.73
646.875	5.57
647.205	5.55
647.535	5.45
647.865	5.37
648.195	5.04
648.525	5.05
648.855	5.06
649.185	5.1
649.515	5.15
649.844	5.52
650.174	5.58
650.504	5.36
650.833	5.37
651.163	5.4
651.492	5.18
651.822	5.12
652.151	5.19
652.48	4.96
652.81	4.79
653.139	4.67
653.468	4.59
653.797	4.83
654.126	5.07
654.455	5.17
654.784	5.11
655.113	5.26
655.442	5.03
655.771	4.9
656.099	5.04
656.428	5.25
656.757	5.2
657.085	5.28
657.414	5.28
657.742	4.94
658.071	4.78
658.399	4.69
658.728	4.44
659.056	4.5
659.384	4.56
659.712	4.47
660.04	4.48
660.369	4.63
660.697	4.56
661.025	4.49
661.353	4.55
661.68	4.5
662.008	4.55
662.336	4.51
662.664	4.63
662.991	4.55
663.319	4.57
663.647	4.48
663.974	4.71
664.302	4.52
664.629	4.4
664.956	4.46
665.284	4.53
665.611	4.29
665.938	4.24
666.265	4.28
666.593	4.27
666.92	4.16
667.247	4.14
667.574	4.29
667.9	4.38
668.227	4.28
668.554	4.34
668.881	4.2
669.208	4.16
669.534	4.12
669.861	4.06
670.187	3.97
670.514	4.11
670.84	4.15
671.167	4.26
671.493	4.51
671.819	4.73
672.146	4.84
672.472	5.07
672.798	5.05
673.124	5.06
673.45	4.91
673.776	5.02
674.102	4.98
674.428	4.97
674.754	4.78
675.079	4.94
675.405	4.96
675.731	4.92
676.056	5.43
676.382	5.46
676.707	5.37
677.033	5.21
677.358	5.49
677.684	5.12
