Data from Ss-i1_Reflection_14-47-52-505.txt Node
Date: Tue Aug 16 14:47:52 CEST 2022
User: IDIV
Spectrometer: FLMS14958
Trigger mode: 0
Integration Time (sec): 1.000000E-1
Scans to average: 10
Electric dark correction enabled: true
Nonlinearity correction enabled: true
Boxcar width: 2
XAxis mode: Wavelengths
Number of Pixels in Spectrum: 2048
>>>>>Begin Spectral Data<<<<<
179.491	121.17
179.869	115.19
180.247	85.71
180.625	35.55
181.003	131.69
181.381	111.33
181.759	179.35
182.136	855.97
182.514	-106.21
182.892	1366.24
183.27	336.42
183.647	29.66
184.025	109.96
184.403	289.87
184.78	420.99
185.158	425.46
185.536	-19.2
185.913	49.23
186.291	109.36
186.668	69.77
187.046	88.5
187.423	2028.7
187.801	13.02
188.178	11.21
188.556	22.65
188.933	24.02
189.31	16.13
189.688	9.12
190.065	3.44
190.442	-12.13
190.82	-32.53
191.197	-4.35
191.574	4.89
191.951	4.92
192.329	9.28
192.706	16.56
193.083	1.62
193.46	-5.2
193.837	-2.59
194.214	-9.58
194.591	-12.58
194.968	-18.62
195.345	-6.73
195.722	-10.06
196.099	-3.9
196.476	-2.75
196.853	13.84
197.23	3.29
197.607	8.46
197.984	7.16
198.36	14.31
198.737	6.83
199.114	5.03
199.491	-0.43
199.867	6.86
200.244	-11.88
200.621	-13.54
200.997	-6.62
201.374	-2.71
201.75	-7.89
202.127	12.05
202.504	1.88
202.88	-6.07
203.257	-1.7
203.633	2.97
204.01	-6.18
204.386	-7.83
204.762	-4.16
205.139	-11.31
205.515	-17.34
205.891	-15.17
206.268	-3.95
206.644	-14.21
207.02	-8.25
207.396	-13.46
207.773	-13.84
208.149	-15.35
208.525	-6.22
208.901	-9.39
209.277	-4.86
209.653	-14.18
210.029	-11.49
210.405	-7.91
210.781	-5.83
211.157	-6.62
211.533	5.18
211.909	2.33
212.285	7.94
212.661	7.82
213.037	13.63
213.413	10.2
213.789	12.35
214.164	-3.33
214.54	1.3
214.916	-5.86
215.292	-3.08
215.667	-6.04
216.043	-1.5
216.419	-6.35
216.794	-1.12
217.17	-2.16
217.545	-9.67
217.921	-9.43
218.296	-8.28
218.672	-2.58
219.047	-2.25
219.423	5.23
219.798	11.36
220.174	7.13
220.549	5.37
220.924	6.21
221.3	6.98
221.675	1.68
222.05	5.62
222.425	0.7
222.801	1.75
223.176	6.3
223.551	9.31
223.926	6.31
224.301	0.45
224.676	-0.5
225.051	-0.87
225.426	-3.04
225.801	0.33
226.176	6.12
226.551	10.76
226.926	8.48
227.301	11.53
227.676	10.33
228.051	6.52
228.426	0.43
228.801	-0.28
229.175	-0.7
229.55	0.13
229.925	1.82
230.3	2.96
230.674	3.57
231.049	2.82
231.424	1.71
231.798	-0.16
232.173	-0.15
232.547	-1.35
232.922	-0.83
233.296	-1.7
233.671	-0.97
234.045	-1.5
234.42	-1.22
234.794	-0.1
235.168	0.9
235.543	1.05
235.917	0.78
236.291	-0.1
236.666	-1.06
237.04	-0.74
237.414	-0.88
237.788	0.56
238.162	2.13
238.537	2.95
238.911	3.07
239.285	3.08
239.659	2.85
240.033	2.69
240.407	1.87
240.781	2.04
241.155	1.95
241.529	1.22
241.903	1.33
242.277	1.81
242.65	1.65
243.024	1.5
243.398	1.52
243.772	1.52
244.146	1.22
244.519	1.11
244.893	1.28
245.267	1.29
245.64	1.06
246.014	0.95
246.387	0.82
246.761	0.83
247.135	0.96
247.508	1.01
247.882	1.03
248.255	1.04
248.628	0.95
249.002	0.84
249.375	0.98
249.749	1.16
250.122	1.32
250.495	1.55
250.868	1.91
251.242	1.5
251.615	1.02
251.988	0.69
252.361	0.82
252.734	0.91
253.107	1.01
253.481	1.15
253.854	1.48
254.227	1.36
254.6	1.12
254.973	1.36
255.346	1.47
255.718	1.36
256.091	1.22
256.464	1.63
256.837	1.24
257.21	1.05
257.583	0.69
257.955	1.21
258.328	1.04
258.701	1.04
259.074	1.23
259.446	1.25
259.819	1.12
260.191	1.07
260.564	1.13
260.936	1.07
261.309	1.14
261.681	1.16
262.054	1.26
262.426	1.2
262.799	1.43
263.171	1.22
263.543	1.35
263.916	1.34
264.288	1.54
264.66	1.25
265.033	1.87
265.405	1.89
265.777	1.9
266.149	1.56
266.521	1.87
266.893	1.63
267.265	1.4
267.637	1.31
268.009	1.26
268.381	0.79
268.753	0.79
269.125	0.93
269.497	0.68
269.869	0.88
270.241	1.26
270.613	1.05
270.985	0.91
271.356	1.08
271.728	1.05
272.1	0.89
272.471	1
272.843	0.85
273.215	0.79
273.586	0.86
273.958	0.84
274.329	0.72
274.701	1.01
275.072	1.03
275.444	0.9
275.815	0.95
276.187	0.87
276.558	0.78
276.929	0.78
277.301	0.72
277.672	0.69
278.043	0.84
278.415	0.81
278.786	0.79
279.157	1.12
279.528	1.21
279.899	1.27
280.27	0.94
280.641	1.15
281.012	0.81
281.383	0.95
281.754	0.94
282.125	1.22
282.496	1.14
282.867	1.19
283.238	1.06
283.609	1.35
283.98	1.25
284.35	1.4
284.721	1.35
285.092	1.34
285.462	0.98
285.833	1.04
286.204	0.91
286.574	1.03
286.945	1.12
287.315	1.12
287.686	1.25
288.056	1.12
288.427	0.98
288.797	0.84
289.168	0.91
289.538	0.82
289.908	0.88
290.279	0.89
290.649	0.74
291.019	0.77
291.39	0.67
291.76	0.72
292.13	0.48
292.5	0.53
292.87	0.29
293.24	0.19
293.61	0.24
293.98	0.34
294.35	0.62
294.72	0.76
295.09	0.7
295.46	0.63
295.83	0.8
296.2	0.72
296.57	0.78
296.939	0.82
297.309	0.77
297.679	0.76
298.049	0.69
298.418	0.49
298.788	0.51
299.158	0.36
299.527	0.32
299.897	0.32
300.266	0.89
300.636	0.86
301.005	1.15
301.375	1.26
301.744	1.16
302.113	0.87
302.483	0.85
302.852	0.88
303.221	0.65
303.591	0.64
303.96	0.64
304.329	0.77
304.698	0.73
305.067	1.01
305.436	1.04
305.806	1.03
306.175	1.19
306.544	1.09
306.913	0.88
307.282	0.52
307.65	0.72
308.019	0.8
308.388	1.06
308.757	1.1
309.126	1.3
309.495	0.83
309.863	0.65
310.232	0.61
310.601	0.67
310.969	0.66
311.338	0.72
311.707	0.61
312.075	0.46
312.444	0.62
312.812	0.63
313.181	0.78
313.549	0.84
313.918	0.87
314.286	0.46
314.654	0.65
315.023	0.74
315.391	0.86
315.759	0.99
316.127	1.11
316.496	0.96
316.864	0.85
317.232	0.9
317.6	0.84
317.968	0.89
318.336	1.2
318.704	1.44
319.072	1.41
319.44	1.39
319.808	1.47
320.176	1.32
320.544	0.98
320.912	0.88
321.28	0.88
321.647	0.74
322.015	0.72
322.383	1.02
322.75	1.24
323.118	1.2
323.486	1.07
323.853	1.12
324.221	0.93
324.588	0.7
324.956	0.91
325.323	1.01
325.691	1.08
326.058	1.18
326.426	1.38
326.793	1.31
327.16	1.35
327.528	1.17
327.895	1.18
328.262	1.05
328.629	0.94
328.996	1.09
329.363	1.27
329.731	1.2
330.098	1.15
330.465	1.05
330.832	0.99
331.199	1.1
331.566	1.15
331.932	1.32
332.299	1.43
332.666	1.16
333.033	1.08
333.4	1.13
333.766	1.23
334.133	1.27
334.5	1.62
334.867	1.59
335.233	1.76
335.6	1.56
335.966	1.59
336.333	1.52
336.699	1.43
337.066	1.18
337.432	1.25
337.799	1.34
338.165	1.14
338.531	1.07
338.898	0.79
339.264	0.97
339.63	0.77
339.996	0.95
340.363	1.05
340.729	1.39
341.095	1.45
341.461	1.41
341.827	1.22
342.193	1.17
342.559	1.11
342.925	0.84
343.291	1.08
343.657	1.29
344.023	1.64
344.388	1.55
344.754	1.44
345.12	1.34
345.486	1.19
345.851	1.23
346.217	1.35
346.583	1.57
346.948	1.58
347.314	1.83
347.679	1.66
348.045	1.68
348.41	1.46
348.776	1.32
349.141	1.11
349.507	0.95
349.872	1.07
350.237	1.4
350.603	1.56
350.968	1.75
351.333	2.02
351.698	2.01
352.063	1.73
352.428	1.78
352.794	1.87
353.159	1.88
353.524	1.81
353.889	1.69
354.254	1.71
354.618	1.6
354.983	1.4
355.348	1.48
355.713	1.74
356.078	1.74
356.443	1.66
356.807	1.83
357.172	1.69
357.537	1.62
357.901	1.62
358.266	1.55
358.63	1.28
358.995	1.32
359.359	1.57
359.724	1.57
360.088	1.79
360.453	1.99
360.817	2.1
361.181	1.87
361.546	1.83
361.91	1.85
362.274	1.92
362.638	1.96
363.003	2.09
363.367	2.05
363.731	1.99
364.095	1.94
364.459	1.88
364.823	1.84
365.187	1.87
365.551	1.93
365.915	1.95
366.279	1.96
366.642	1.85
367.006	1.94
367.37	2.11
367.734	2.04
368.097	1.97
368.461	1.98
368.825	2.11
369.188	1.95
369.552	1.93
369.915	1.97
370.279	2.07
370.642	2.16
371.006	2.19
371.369	2.33
371.732	2.4
372.096	2.38
372.459	2.21
372.822	2.27
373.186	2.1
373.549	1.89
373.912	1.83
374.275	1.78
374.638	1.79
375.001	1.88
375.364	2.16
375.727	2.21
376.09	2.18
376.453	2.07
376.816	2.01
377.179	1.96
377.542	2.15
377.904	2.14
378.267	2.16
378.63	2.33
378.993	2.34
379.355	2.25
379.718	2.26
380.08	2.18
380.443	2.23
380.806	2.08
381.168	1.98
381.53	2.12
381.893	2.17
382.255	2.12
382.618	2.18
382.98	2.32
383.342	2.21
383.704	2.28
384.067	2.23
384.429	2.34
384.791	2.31
385.153	2.37
385.515	2.3
385.877	2.34
386.239	2.26
386.601	2.42
386.963	2.43
387.325	2.56
387.687	2.48
388.049	2.55
388.41	2.24
388.772	2.14
389.134	2.04
389.496	1.99
389.857	1.91
390.219	2.12
390.58	2.06
390.942	2.06
391.303	2
391.665	2.13
392.026	2.08
392.388	2.23
392.749	2.34
393.111	2.48
393.472	2.42
393.833	2.5
394.194	2.5
394.556	2.46
394.917	2.54
395.278	2.62
395.639	2.48
396	2.52
396.361	2.57
396.722	2.51
397.083	2.42
397.444	2.37
397.805	2.35
398.166	2.34
398.526	2.39
398.887	2.42
399.248	2.54
399.609	2.6
399.969	2.56
400.33	2.45
400.691	2.52
401.051	2.4
401.412	2.35
401.772	2.41
402.133	2.38
402.493	2.18
402.853	2.36
403.214	2.36
403.574	2.4
403.934	2.38
404.295	2.54
404.655	2.48
405.015	2.53
405.375	2.42
405.735	2.52
406.095	2.43
406.455	2.4
406.815	2.37
407.175	2.33
407.535	2.36
407.895	2.52
408.255	2.61
408.615	2.56
408.975	2.53
409.334	2.37
409.694	2.23
410.054	2.16
410.413	2.1
410.773	2.12
411.133	2.16
411.492	2.14
411.852	2.16
412.211	2.22
412.571	2.31
412.93	2.31
413.289	2.38
413.649	2.39
414.008	2.36
414.367	2.36
414.726	2.45
415.086	2.58
415.445	2.55
415.804	2.49
416.163	2.47
416.522	2.45
416.881	2.23
417.24	2.25
417.599	2.24
417.958	2.26
418.316	2.23
418.675	2.28
419.034	2.28
419.393	2.32
419.751	2.29
420.11	2.27
420.469	2.26
420.827	2.22
421.186	2.23
421.544	2.24
421.903	2.3
422.261	2.31
422.62	2.32
422.978	2.32
423.336	2.31
423.695	2.22
424.053	2.18
424.411	2.17
424.769	2.16
425.128	2.19
425.486	2.21
425.844	2.2
426.202	2.18
426.56	2.16
426.918	2.15
427.276	2.16
427.634	2.2
427.991	2.21
428.349	2.15
428.707	2.09
429.065	2.09
429.423	2
429.78	2.03
430.138	2.08
430.495	2.06
430.853	2.04
431.211	2.14
431.568	2.17
431.925	2.23
432.283	2.31
432.64	2.39
432.998	2.37
433.355	2.34
433.712	2.29
434.069	2.22
434.427	2.2
434.784	2.24
435.141	2.23
435.498	2.31
435.855	2.29
436.212	2.27
436.569	2.19
436.926	2.26
437.283	2.2
437.64	2.25
437.996	2.23
438.353	2.27
438.71	2.22
439.067	2.18
439.423	2.15
439.78	2.13
440.137	2.12
440.493	2.16
440.85	2.22
441.206	2.18
441.563	2.18
441.919	2.18
442.275	2.12
442.632	2.08
442.988	2.13
443.344	2.11
443.7	2.07
444.057	2.1
444.413	2.08
444.769	2.06
445.125	2.08
445.481	2.11
445.837	2.09
446.193	2.12
446.549	2.12
446.905	2.15
447.26	2.11
447.616	2.11
447.972	2.11
448.328	2.15
448.683	2.13
449.039	2.15
449.395	2.2
449.75	2.23
450.106	2.23
450.461	2.18
450.817	2.18
451.172	2.18
451.527	2.09
451.883	2.05
452.238	2.08
452.593	2.09
452.949	2.05
453.304	2.12
453.659	2.15
454.014	2.1
454.369	2.11
454.724	2.11
455.079	2.05
455.434	2.09
455.789	2.16
456.144	2.19
456.499	2.17
456.853	2.28
457.208	2.13
457.563	2.08
457.918	2.05
458.272	2.04
458.627	1.98
458.981	2.03
459.336	2.03
459.69	2.06
460.045	2.03
460.399	2.02
460.754	2.02
461.108	2.05
461.462	2.05
461.817	2.11
462.171	2.12
462.525	2.08
462.879	2.12
463.233	2.06
463.587	2.07
463.941	2.07
464.295	2.11
464.649	2.07
465.003	2.08
465.357	2.1
465.711	2.09
466.065	2.14
466.418	2.12
466.772	2.07
467.126	1.97
467.479	2
467.833	1.93
468.186	1.96
468.54	2.05
468.893	2.05
469.247	2.03
469.6	2.07
469.954	1.99
470.307	1.87
470.66	1.93
471.013	1.92
471.367	1.9
471.72	1.92
472.073	1.96
472.426	1.9
472.779	1.92
473.132	1.91
473.485	1.94
473.838	1.9
474.191	1.9
474.544	1.85
474.896	1.81
475.249	1.86
475.602	1.88
475.955	1.92
476.307	1.88
476.66	1.89
477.012	1.85
477.365	1.85
477.717	1.77
478.07	1.79
478.422	1.74
478.775	1.69
479.127	1.66
479.479	1.75
479.831	1.74
480.184	1.8
480.536	1.81
480.888	1.78
481.24	1.73
481.592	1.71
481.944	1.72
482.296	1.74
482.648	1.74
483	1.7
483.352	1.69
483.703	1.68
484.055	1.67
484.407	1.67
484.759	1.67
485.11	1.71
485.462	1.69
485.813	1.67
486.165	1.69
486.516	1.72
486.868	1.68
487.219	1.7
487.571	1.72
487.922	1.69
488.273	1.66
488.624	1.68
488.976	1.66
489.327	1.64
489.678	1.69
490.029	1.71
490.38	1.63
490.731	1.66
491.082	1.64
491.433	1.6
491.784	1.61
492.135	1.63
492.485	1.62
492.836	1.65
493.187	1.64
493.537	1.64
493.888	1.67
494.239	1.7
494.589	1.63
494.94	1.66
495.29	1.61
495.641	1.53
495.991	1.51
496.341	1.55
496.692	1.52
497.042	1.57
497.392	1.59
497.742	1.61
498.092	1.59
498.442	1.66
498.793	1.63
499.143	1.6
499.493	1.59
499.842	1.62
500.192	1.58
500.542	1.58
500.892	1.59
501.242	1.57
501.591	1.51
501.941	1.47
502.291	1.45
502.64	1.5
502.99	1.51
503.339	1.54
503.689	1.6
504.038	1.57
504.388	1.58
504.737	1.55
505.086	1.54
505.436	1.54
505.785	1.58
506.134	1.58
506.483	1.52
506.832	1.47
507.181	1.38
507.53	1.42
507.879	1.37
508.228	1.39
508.577	1.41
508.926	1.46
509.275	1.41
509.624	1.44
509.972	1.47
510.321	1.47
510.67	1.47
511.018	1.53
511.367	1.5
511.715	1.5
512.064	1.51
512.412	1.52
512.761	1.49
513.109	1.52
513.457	1.53
513.806	1.5
514.154	1.5
514.502	1.49
514.85	1.45
515.198	1.45
515.546	1.56
515.894	1.54
516.242	1.53
516.59	1.5
516.938	1.48
517.286	1.45
517.634	1.44
517.981	1.45
518.329	1.49
518.677	1.49
519.024	1.47
519.372	1.49
519.72	1.5
520.067	1.54
520.415	1.58
520.762	1.6
521.109	1.58
521.457	1.6
521.804	1.6
522.151	1.57
522.498	1.6
522.846	1.6
523.193	1.55
523.54	1.54
523.887	1.52
524.234	1.51
524.581	1.52
524.928	1.54
525.275	1.55
525.621	1.57
525.968	1.56
526.315	1.54
526.662	1.51
527.008	1.51
527.355	1.49
527.701	1.49
528.048	1.45
528.394	1.48
528.741	1.47
529.087	1.48
529.434	1.48
529.78	1.52
530.126	1.53
530.472	1.52
530.819	1.52
531.165	1.51
531.511	1.51
531.857	1.51
532.203	1.5
532.549	1.49
532.895	1.5
533.241	1.5
533.586	1.5
533.932	1.53
534.278	1.56
534.624	1.54
534.969	1.54
535.315	1.56
535.661	1.57
536.006	1.55
536.352	1.6
536.697	1.6
537.042	1.59
537.388	1.61
537.733	1.61
538.078	1.59
538.424	1.59
538.769	1.64
539.114	1.67
539.459	1.67
539.804	1.71
540.149	1.72
540.494	1.72
540.839	1.68
541.184	1.7
541.529	1.68
541.873	1.67
542.218	1.66
542.563	1.65
542.908	1.65
543.252	1.64
543.597	1.62
543.941	1.62
544.286	1.62
544.63	1.61
544.975	1.65
545.319	1.72
545.663	1.73
546.007	1.79
546.352	1.8
546.696	1.83
547.04	1.84
547.384	1.82
547.728	1.82
548.072	1.87
548.416	1.92
548.76	1.92
549.104	1.95
549.448	1.98
549.791	1.99
550.135	1.9
550.479	1.91
550.823	1.97
551.166	1.98
551.51	1.98
551.853	2.02
552.197	2
552.54	1.89
552.883	1.82
553.227	1.79
553.57	1.8
553.913	1.82
554.257	1.94
554.6	1.96
554.943	2.05
555.286	2.04
555.629	2.1
555.972	2.06
556.315	2.13
556.658	2.05
557.001	2.05
557.343	1.97
557.686	1.93
558.029	1.85
558.371	1.84
558.714	1.84
559.057	1.92
559.399	2
559.742	2.05
560.084	2.14
560.427	2.23
560.769	2.23
561.111	2.21
561.453	2.26
561.796	2.14
562.138	2.09
562.48	2.12
562.822	2.15
563.164	2.21
563.506	2.3
563.848	2.32
564.19	2.34
564.532	2.31
564.874	2.25
565.215	2.25
565.557	2.27
565.899	2.21
566.24	2.27
566.582	2.32
566.924	2.33
567.265	2.31
567.606	2.42
567.948	2.4
568.289	2.35
568.631	2.44
568.972	2.45
569.313	2.4
569.654	2.37
569.995	2.41
570.336	2.34
570.677	2.34
571.018	2.3
571.359	2.38
571.7	2.35
572.041	2.39
572.382	2.44
572.723	2.5
573.064	2.51
573.404	2.64
573.745	2.64
574.085	2.65
574.426	2.64
574.766	2.64
575.107	2.61
575.447	2.64
575.788	2.69
576.128	2.74
576.468	2.76
576.808	2.78
577.149	2.75
577.489	2.73
577.829	2.8
578.169	2.88
578.509	2.87
578.849	2.91
579.189	3
579.529	3.07
579.868	3
580.208	3.09
580.548	3.17
580.887	3.19
581.227	3.08
581.567	3.13
581.906	3.07
582.246	3.13
582.585	3.14
582.925	3.15
583.264	3.07
583.603	3.06
583.942	3
584.282	2.99
584.621	3.03
584.96	3.18
585.299	3.11
585.638	3.15
585.977	3.2
586.316	3.18
586.655	3.21
586.994	3.36
587.332	3.3
587.671	3.29
588.01	3.36
588.348	3.32
588.687	3.39
589.026	3.46
589.364	3.47
589.703	3.45
590.041	3.45
590.379	3.32
590.718	3.35
591.056	3.35
591.394	3.35
591.732	3.3
592.07	3.48
592.409	3.49
592.747	3.45
593.085	3.45
593.423	3.57
593.76	3.55
594.098	3.54
594.436	3.66
594.774	3.69
595.112	3.67
595.449	3.57
595.787	3.53
596.124	3.5
596.462	3.51
596.799	3.47
597.137	3.58
597.474	3.61
597.812	3.6
598.149	3.6
598.486	3.64
598.823	3.6
599.16	3.71
599.498	3.72
599.835	3.79
600.172	3.8
600.509	3.78
600.845	3.74
601.182	3.7
601.519	3.69
601.856	3.78
602.193	3.78
602.529	3.71
602.866	3.77
603.202	3.79
603.539	3.73
603.875	3.73
604.212	3.77
604.548	3.79
604.885	3.72
605.221	3.73
605.557	3.85
605.893	3.9
606.23	3.92
606.566	3.94
606.902	3.96
607.238	3.89
607.574	3.84
607.91	3.81
608.245	3.85
608.581	3.88
608.917	3.93
609.253	4.02
609.588	4.1
609.924	4.29
610.26	4.57
610.595	4.78
610.931	5.13
611.266	5.4
611.601	5.54
611.937	5.5
612.272	5.21
612.607	5
612.942	4.81
613.278	4.75
613.613	4.72
613.948	5.04
614.283	5.07
614.618	5.04
614.953	4.94
615.287	4.84
615.622	4.75
615.957	4.56
616.292	4.51
616.626	4.47
616.961	4.46
617.295	4.34
617.63	4.25
617.964	4.12
618.299	4.03
618.633	3.96
618.968	3.99
619.302	4.15
619.636	4.24
619.97	4.31
620.304	4.27
620.638	4.05
620.972	4.06
621.306	4.03
621.64	3.93
621.974	4.06
622.308	4.25
622.642	4.18
622.976	4.19
623.309	4.32
623.643	4.21
623.977	4.22
624.31	4.24
624.644	4.32
624.977	4.11
625.31	4.14
625.644	4.01
625.977	3.97
626.31	3.83
626.643	3.93
626.977	4.06
627.31	4.25
627.643	4.2
627.976	4.33
628.309	4.37
628.642	4.29
628.974	4.17
629.307	4.38
629.64	4.41
629.973	4.45
630.305	4.47
630.638	4.53
630.971	4.49
631.303	4.53
631.636	4.42
631.968	4.31
632.3	4.33
632.633	4.16
632.965	4.08
633.297	4.06
633.629	4.01
633.961	3.96
634.293	3.99
634.625	3.98
634.957	3.96
635.289	3.98
635.621	3.98
635.953	3.95
636.285	3.95
636.617	4.15
636.948	4.17
637.28	4.14
637.611	4.09
637.943	3.98
638.274	3.9
638.606	4.01
638.937	3.95
639.269	3.96
639.6	4.06
639.931	4.05
640.262	4.03
640.593	4.13
640.924	4.14
641.255	4.19
641.586	3.93
641.917	3.82
642.248	3.76
642.579	3.77
642.91	3.69
643.24	3.91
643.571	3.85
643.902	3.98
644.232	4.05
644.563	4.07
644.893	4.13
645.224	4.21
645.554	3.93
645.884	3.92
646.215	3.93
646.545	3.88
646.875	3.88
647.205	3.9
647.535	3.88
647.865	3.95
648.195	3.96
648.525	3.94
648.855	3.99
649.185	4.12
649.515	3.92
649.844	3.88
650.174	3.75
650.504	3.91
650.833	3.8
651.163	3.88
651.492	3.79
651.822	3.87
652.151	3.83
652.48	3.83
652.81	3.97
653.139	4.12
653.468	4.11
653.797	3.93
654.126	3.85
654.455	3.64
654.784	3.68
655.113	3.73
655.442	4
655.771	3.8
656.099	3.8
656.428	3.55
656.757	3.39
657.085	3.27
657.414	3.44
657.742	3.48
658.071	3.8
658.399	3.82
658.728	3.66
659.056	3.71
659.384	3.69
659.712	3.55
660.04	3.6
660.369	3.81
660.697	3.76
661.025	3.77
661.353	3.72
661.68	3.73
662.008	3.63
662.336	3.68
662.664	3.7
662.991	3.97
663.319	4.08
663.647	3.98
663.974	3.8
664.302	3.97
664.629	3.61
664.956	3.65
665.284	3.63
665.611	3.89
665.938	3.99
666.265	4.04
666.593	3.77
666.92	3.82
667.247	3.77
667.574	3.63
667.9	3.6
668.227	3.88
668.554	3.91
668.881	3.96
669.208	3.76
669.534	3.66
669.861	3.3
670.187	3.27
670.514	3.18
670.84	3.42
671.167	3.6
671.493	3.97
671.819	3.95
672.146	3.97
672.472	4.01
672.798	4.19
673.124	4.02
673.45	4.03
673.776	3.95
674.102	3.85
674.428	3.48
674.754	3.49
675.079	3.62
675.405	3.87
675.731	3.94
676.056	4.09
676.382	3.99
676.707	3.71
677.033	3.56
677.358	3.31
677.684	3.26
678.009	3.62
678.334	3.9
678.659	4.03
678.985	4.28
679.31	4.11
679.635	4.23
679.96	4.18
680.285	4.03
680.609	3.8
680.934	4.17
