Data from Stp-i1_Reflection_15-13-53-462.txt Node
Date: Tue Aug 16 15:13:53 CEST 2022
User: IDIV
Spectrometer: FLMS14958
Trigger mode: 0
Integration Time (sec): 1.000000E-1
Scans to average: 10
Electric dark correction enabled: true
Nonlinearity correction enabled: true
Boxcar width: 2
XAxis mode: Wavelengths
Number of Pixels in Spectrum: 2048
>>>>>Begin Spectral Data<<<<<
179.491	-135.64
179.869	-90.08
180.247	-90.89
180.625	-139.46
181.003	-121.54
181.381	3.86
181.759	86.75
182.136	20.83
182.514	72.3
182.892	70.13
183.27	193.71
183.647	-417.8
184.025	-17.48
184.403	95.55
184.78	63.62
185.158	123.99
185.536	-22.63
185.913	112.28
186.291	37.42
186.668	11.5
187.046	-655.54
187.423	1157.24
187.801	-71.88
188.178	-14.58
188.556	-10.92
188.933	5.64
189.31	6.11
189.688	6.39
190.065	8.48
190.442	15.64
190.82	20.49
191.197	13.47
191.574	0.39
191.951	-5.95
192.329	-8.78
192.706	-11.02
193.083	-2.86
193.46	16.36
193.837	17.8
194.214	17.47
194.591	15.9
194.968	14.15
195.345	7.88
195.722	0.93
196.099	-2.25
196.476	-9.74
196.853	-5.84
197.23	-12.33
197.607	-13.65
197.984	-3.73
198.36	-1.45
198.737	6.81
199.114	15.18
199.491	24.72
199.867	21.35
200.244	24.02
200.621	19.2
200.997	17.17
201.374	14.3
201.75	4.89
202.127	11.06
202.504	11.65
202.88	5.25
203.257	2.88
203.633	6.7
204.01	11.08
204.386	1.62
204.762	13.58
205.139	19.08
205.515	13.66
205.891	8.37
206.268	21.87
206.644	21.95
207.02	16.55
207.396	16.3
207.773	8.76
208.149	-3.02
208.525	-13.96
208.901	-10.14
209.277	-17.21
209.653	-1.97
210.029	5.66
210.405	7.37
210.781	8.15
211.157	8.5
211.533	-0.97
211.909	-8.11
212.285	-9.9
212.661	-3
213.037	-6.06
213.413	-0.48
213.789	-10.69
214.164	-3.92
214.54	-10.62
214.916	-10.69
215.292	-12.12
215.667	-6.56
216.043	-10.15
216.419	-15.4
216.794	-5.59
217.17	-3.85
217.545	0.75
217.921	-5.63
218.296	-5.45
218.672	-8.96
219.047	-17.57
219.423	-17.69
219.798	-5.51
220.174	-5.75
220.549	0.96
220.924	7.39
221.3	11.07
221.675	9.65
222.05	14.56
222.425	9.01
222.801	5.71
223.176	-0.26
223.551	-3.42
223.926	-6
224.301	-4.79
224.676	1.05
225.051	1.56
225.426	5.03
225.801	5.49
226.176	8.65
226.551	2.35
226.926	4.53
227.301	-2.03
227.676	1.63
228.051	2.54
228.426	2.2
228.801	1.66
229.175	3.74
229.55	1.71
229.925	0.13
230.3	0.85
230.674	0.09
231.049	-0.19
231.424	0.86
231.798	1.83
232.173	1.29
232.547	2.81
232.922	1.87
233.296	2.42
233.671	3.68
234.045	5.03
234.42	4.64
234.794	5.68
235.168	4.98
235.543	4.87
235.917	2.36
236.291	1.76
236.666	0.99
237.04	0.65
237.414	-0.1
237.788	1.9
238.162	2.64
238.537	2.63
238.911	2.68
239.285	1.79
239.659	1.91
240.033	0.98
240.407	0.64
240.781	0.92
241.155	0.63
241.529	0.42
241.903	0.93
242.277	1.26
242.65	1.1
243.024	1.52
243.398	1.54
243.772	1.5
244.146	1.55
244.519	1.37
244.893	1.24
245.267	1.21
245.64	0.58
246.014	0.43
246.387	0.37
246.761	0.57
247.135	0.69
247.508	0.92
247.882	0.95
248.255	1.15
248.628	1.03
249.002	0.91
249.375	0.84
249.749	0.91
250.122	0.69
250.495	0.86
250.868	0.8
251.242	0.47
251.615	0.36
251.988	0.54
252.361	0.56
252.734	0.6
253.107	0.81
253.481	0.82
253.854	0.88
254.227	0.9
254.6	1.08
254.973	1.06
255.346	0.76
255.718	0.52
256.091	0.56
256.464	0.63
256.837	0.59
257.21	0.71
257.583	0.2
257.955	0.09
258.328	-0.54
258.701	-0.25
259.074	-0.04
259.446	0.48
259.819	0.56
260.191	0.99
260.564	0.93
260.936	0.77
261.309	0.83
261.681	0.68
262.054	0.52
262.426	0.58
262.799	1
263.171	0.82
263.543	1.01
263.916	0.81
264.288	0.5
264.66	0.31
265.033	0.36
265.405	0.97
265.777	1.12
266.149	1.24
266.521	1.12
266.893	1.03
267.265	0.64
267.637	0.77
268.009	0.63
268.381	0.68
268.753	0.61
269.125	0.54
269.497	0.2
269.869	0.34
270.241	0.48
270.613	0.45
270.985	0.37
271.356	0.28
271.728	0.41
272.1	0.3
272.471	0.54
272.843	0.73
273.215	1.18
273.586	1.16
273.958	1.1
274.329	1.07
274.701	0.91
275.072	0.63
275.444	0.59
275.815	0.81
276.187	0.87
276.558	1.01
276.929	1.12
277.301	1.08
277.672	0.76
278.043	0.55
278.415	0.57
278.786	0.64
279.157	0.65
279.528	1.1
279.899	1.18
280.27	1.49
280.641	1.17
281.012	1.01
281.383	0.56
281.754	0.56
282.125	0.43
282.496	0.59
282.867	0.82
283.238	0.85
283.609	0.93
283.98	0.64
284.35	0.54
284.721	0.43
285.092	0.51
285.462	0.45
285.833	0.68
286.204	0.71
286.574	0.8
286.945	0.96
287.315	1.07
287.686	0.91
288.056	0.89
288.427	0.71
288.797	0.8
289.168	0.67
289.538	0.81
289.908	0.89
290.279	0.93
290.649	0.74
291.019	0.63
291.39	0.58
291.76	0.71
292.13	0.82
292.5	0.74
292.87	0.65
293.24	0.79
293.61	0.61
293.98	0.27
294.35	0.59
294.72	0.77
295.09	0.63
295.46	0.71
295.83	0.92
296.2	0.81
296.57	0.72
296.939	0.95
297.309	0.88
297.679	0.94
298.049	1.03
298.418	1.16
298.788	1
299.158	0.93
299.527	0.7
299.897	0.59
300.266	0.63
300.636	0.51
301.005	0.62
301.375	0.69
301.744	0.74
302.113	0.69
302.483	0.64
302.852	0.38
303.221	0.37
303.591	0.06
303.96	-0.3
304.329	-0.2
304.698	0.01
305.067	0.24
305.436	0.29
305.806	0.63
306.175	1.06
306.544	0.99
306.913	0.88
307.282	1.18
307.65	0.95
308.019	0.77
308.388	0.94
308.757	1.03
309.126	0.76
309.495	0.91
309.863	0.75
310.232	0.71
310.601	0.49
310.969	0.69
311.338	0.67
311.707	0.63
312.075	0.59
312.444	0.67
312.812	0.85
313.181	1.04
313.549	1.14
313.918	1.09
314.286	1.17
314.654	1.13
315.023	0.76
315.391	0.69
315.759	0.94
316.127	0.97
316.496	0.78
316.864	1.1
317.232	0.89
317.6	0.69
317.968	0.56
318.336	0.7
318.704	0.56
319.072	0.9
319.44	0.81
319.808	0.84
320.176	0.53
320.544	0.51
320.912	0.33
321.28	0.57
321.647	0.47
322.015	0.45
322.383	0.4
322.75	0.38
323.118	0.28
323.486	0.68
323.853	0.86
324.221	1.03
324.588	1.24
324.956	1.32
325.323	1.21
325.691	1.13
326.058	0.93
326.426	0.83
326.793	0.68
327.16	0.69
327.528	0.68
327.895	0.91
328.262	0.88
328.629	0.99
328.996	0.9
329.363	0.86
329.731	0.7
330.098	0.99
330.465	1.15
330.832	1.33
331.199	1.61
331.566	1.91
331.932	1.89
332.299	1.55
332.666	1.41
333.033	1.27
333.4	1.14
333.766	0.76
334.133	0.71
334.5	0.6
334.867	0.54
335.233	0.44
335.6	0.54
335.966	0.69
336.333	0.74
336.699	0.53
337.066	0.34
337.432	0.37
337.799	0.5
338.165	0.54
338.531	0.52
338.898	0.88
339.264	1.12
339.63	0.91
339.996	0.89
340.363	1.09
340.729	0.9
341.095	0.71
341.461	0.74
341.827	0.6
342.193	0.7
342.559	0.67
342.925	0.85
343.291	0.85
343.657	0.86
344.023	1.01
344.388	1.05
344.754	0.67
345.12	0.8
345.486	0.86
345.851	0.79
346.217	0.82
346.583	1.07
346.948	1.04
347.314	1.19
347.679	1.13
348.045	1.08
348.41	1.01
348.776	0.9
349.141	0.65
349.507	0.45
349.872	0.38
350.237	0.15
350.603	0.29
350.968	0.56
351.333	0.46
351.698	0.57
352.063	0.66
352.428	0.53
352.794	0.38
353.159	0.54
353.524	0.69
353.889	0.9
354.254	0.88
354.618	0.85
354.983	0.96
355.348	0.84
355.713	0.89
356.078	1
356.443	0.96
356.807	0.72
357.172	0.8
357.537	0.75
357.901	0.8
358.266	0.82
358.63	0.91
358.995	0.8
359.359	0.72
359.724	0.8
360.088	0.98
360.453	0.96
360.817	0.93
361.181	1.03
361.546	1.04
361.91	1.06
362.274	1.14
362.638	1.32
363.003	1.36
363.367	1.19
363.731	0.95
364.095	1.03
364.459	1.02
364.823	0.81
365.187	1.07
365.551	1.16
365.915	1.12
366.279	0.91
366.642	1.07
367.006	0.98
367.37	0.95
367.734	0.73
368.097	0.76
368.461	0.59
368.825	0.62
369.188	0.7
369.552	0.87
369.915	0.68
370.279	0.91
370.642	0.74
371.006	0.68
371.369	0.68
371.732	0.75
372.096	0.67
372.459	0.75
372.822	1.01
373.186	0.95
373.549	1.04
373.912	1.16
374.275	1.01
374.638	0.65
375.001	0.68
375.364	0.85
375.727	0.65
376.09	0.62
376.453	0.69
376.816	0.72
377.179	0.61
377.542	0.54
377.904	0.69
378.267	0.66
378.63	0.74
378.993	0.75
379.355	0.88
379.718	0.75
380.08	0.89
380.443	0.77
380.806	0.74
381.168	0.72
381.53	0.73
381.893	0.67
382.255	0.69
382.618	0.71
382.98	0.79
383.342	0.97
383.704	0.98
384.067	0.98
384.429	1.01
384.791	1.04
385.153	0.99
385.515	0.97
385.877	0.98
386.239	1.03
386.601	0.97
386.963	0.92
387.325	0.96
387.687	1.01
388.049	0.9
388.41	1.01
388.772	1.15
389.134	0.98
389.496	0.92
389.857	0.93
390.219	0.98
390.58	0.87
390.942	0.98
391.303	0.97
391.665	1
392.026	1.01
392.388	1.09
392.749	1.11
393.111	1
393.472	1.08
393.833	1.06
394.194	0.9
394.556	0.89
394.917	0.97
395.278	0.96
395.639	0.98
396	1.14
396.361	1.23
396.722	1.3
397.083	1.25
397.444	1.13
397.805	1.06
398.166	1.07
398.526	0.98
398.887	1.01
399.248	0.99
399.609	0.91
399.969	0.78
400.33	0.84
400.691	0.85
401.051	0.98
401.412	0.91
401.772	1.06
402.133	1.1
402.493	1.13
402.853	0.99
403.214	1.13
403.574	0.98
403.934	0.93
404.295	0.93
404.655	1.03
405.015	1.06
405.375	1.08
405.735	1.16
406.095	1.06
406.455	1.05
406.815	1.01
407.175	1.13
407.535	1.13
407.895	1.19
408.255	1.29
408.615	1.37
408.975	1.33
409.334	1.29
409.694	1.27
410.054	1.14
410.413	1.09
410.773	1.16
411.133	1.14
411.492	1.13
411.852	1.08
412.211	1.06
412.571	0.99
412.93	1.02
413.289	1.12
413.649	1.22
414.008	1.23
414.367	1.32
414.726	1.41
415.086	1.38
415.445	1.25
415.804	1.25
416.163	1.19
416.522	1.07
416.881	1.04
417.24	1.08
417.599	1.05
417.958	1.03
418.316	1.08
418.675	1.03
419.034	1.05
419.393	1.13
419.751	1.13
420.11	1.11
420.469	1.17
420.827	1.18
421.186	1.13
421.544	1.14
421.903	1.16
422.261	1.2
422.62	1.23
422.978	1.23
423.336	1.28
423.695	1.3
424.053	1.25
424.411	1.26
424.769	1.25
425.128	1.24
425.486	1.26
425.844	1.28
426.202	1.21
426.56	1.22
426.918	1.17
427.276	1.11
427.634	1.09
427.991	1.18
428.349	1.23
428.707	1.25
429.065	1.26
429.423	1.3
429.78	1.34
430.138	1.27
430.495	1.29
430.853	1.26
431.211	1.26
431.568	1.21
431.925	1.23
432.283	1.23
432.64	1.2
432.998	1.22
433.355	1.2
433.712	1.22
434.069	1.28
434.427	1.33
434.784	1.31
435.141	1.4
435.498	1.42
435.855	1.37
436.212	1.36
436.569	1.36
436.926	1.3
437.283	1.32
437.64	1.36
437.996	1.36
438.353	1.4
438.71	1.36
439.067	1.34
439.423	1.28
439.78	1.23
440.137	1.19
440.493	1.25
440.85	1.29
441.206	1.29
441.563	1.34
441.919	1.31
442.275	1.26
442.632	1.22
442.988	1.24
443.344	1.27
443.7	1.3
444.057	1.4
444.413	1.45
444.769	1.43
445.125	1.42
445.481	1.43
445.837	1.38
446.193	1.32
446.549	1.35
446.905	1.34
447.26	1.33
447.616	1.33
447.972	1.37
448.328	1.34
448.683	1.3
449.039	1.36
449.395	1.32
449.75	1.26
450.106	1.36
450.461	1.44
450.817	1.38
451.172	1.46
451.527	1.49
451.883	1.32
452.238	1.36
452.593	1.38
452.949	1.35
453.304	1.35
453.659	1.42
454.014	1.4
454.369	1.37
454.724	1.4
455.079	1.42
455.434	1.48
455.789	1.43
456.144	1.47
456.499	1.44
456.853	1.43
457.208	1.4
457.563	1.46
457.918	1.44
458.272	1.44
458.627	1.44
458.981	1.43
459.336	1.41
459.69	1.46
460.045	1.46
460.399	1.49
460.754	1.47
461.108	1.42
461.462	1.34
461.817	1.32
462.171	1.3
462.525	1.31
462.879	1.32
463.233	1.3
463.587	1.33
463.941	1.3
464.295	1.29
464.649	1.36
465.003	1.45
465.357	1.46
465.711	1.41
466.065	1.4
466.418	1.39
466.772	1.34
467.126	1.28
467.479	1.3
467.833	1.35
468.186	1.32
468.54	1.35
468.893	1.43
469.247	1.47
469.6	1.48
469.954	1.49
470.307	1.47
470.66	1.43
471.013	1.39
471.367	1.35
471.72	1.42
472.073	1.43
472.426	1.38
472.779	1.39
473.132	1.42
473.485	1.37
473.838	1.36
474.191	1.44
474.544	1.46
474.896	1.49
475.249	1.48
475.602	1.51
475.955	1.52
476.307	1.57
476.66	1.51
477.012	1.54
477.365	1.5
477.717	1.46
478.07	1.4
478.422	1.46
478.775	1.38
479.127	1.34
479.479	1.39
479.831	1.47
480.184	1.45
480.536	1.53
480.888	1.65
481.24	1.65
481.592	1.59
481.944	1.63
482.296	1.62
482.648	1.56
483	1.52
483.352	1.53
483.703	1.53
484.055	1.53
484.407	1.55
484.759	1.56
485.11	1.56
485.462	1.55
485.813	1.55
486.165	1.53
486.516	1.54
486.868	1.55
487.219	1.57
487.571	1.56
487.922	1.58
488.273	1.57
488.624	1.57
488.976	1.58
489.327	1.58
489.678	1.61
490.029	1.62
490.38	1.62
490.731	1.61
491.082	1.6
491.433	1.61
491.784	1.62
492.135	1.62
492.485	1.61
492.836	1.63
493.187	1.62
493.537	1.59
493.888	1.55
494.239	1.56
494.589	1.54
494.94	1.59
495.29	1.59
495.641	1.63
495.991	1.68
496.341	1.71
496.692	1.66
497.042	1.67
497.392	1.68
497.742	1.69
498.092	1.66
498.442	1.65
498.793	1.68
499.143	1.68
499.493	1.66
499.842	1.69
500.192	1.7
500.542	1.67
500.892	1.67
501.242	1.67
501.591	1.71
501.941	1.68
502.291	1.72
502.64	1.66
502.99	1.61
503.339	1.61
503.689	1.63
504.038	1.59
504.388	1.63
504.737	1.67
505.086	1.63
505.436	1.65
505.785	1.71
506.134	1.75
506.483	1.8
506.832	1.81
507.181	1.78
507.53	1.73
507.879	1.72
508.228	1.72
508.577	1.71
508.926	1.77
509.275	1.75
509.624	1.75
509.972	1.75
510.321	1.76
510.67	1.73
511.018	1.77
511.367	1.76
511.715	1.75
512.064	1.71
512.412	1.75
512.761	1.74
513.109	1.76
513.457	1.71
513.806	1.74
514.154	1.69
514.502	1.73
514.85	1.72
515.198	1.79
515.546	1.8
515.894	1.81
516.242	1.8
516.59	1.82
516.938	1.78
517.286	1.81
517.634	1.84
517.981	1.85
518.329	1.88
518.677	1.91
519.024	1.91
519.372	1.92
519.72	1.91
520.067	1.86
520.415	1.87
520.762	1.88
521.109	1.88
521.457	1.9
521.804	1.94
522.151	1.93
522.498	1.88
522.846	1.91
523.193	1.92
523.54	1.91
523.887	1.93
524.234	1.98
524.581	1.97
524.928	1.97
525.275	1.96
525.621	1.98
525.968	2.01
526.315	2.03
526.662	2.07
527.008	2.08
527.355	2.07
527.701	2.06
528.048	2.05
528.394	2.02
528.741	2.04
529.087	2.04
529.434	2.03
529.78	2.03
530.126	2.03
530.472	2.05
530.819	2.05
531.165	2.09
531.511	2.1
531.857	2.1
532.203	2.1
532.549	2.12
532.895	2.13
533.241	2.15
533.586	2.17
533.932	2.16
534.278	2.16
534.624	2.13
534.969	2.1
535.315	2.1
535.661	2.11
536.006	2.13
536.352	2.2
536.697	2.28
537.042	2.26
537.388	2.25
537.733	2.23
538.078	2.21
538.424	2.14
538.769	2.14
539.114	2.16
539.459	2.21
539.804	2.18
540.149	2.22
540.494	2.24
540.839	2.29
541.184	2.29
541.529	2.32
541.873	2.3
542.218	2.32
542.563	2.29
542.908	2.3
543.252	2.31
543.597	2.36
543.941	2.35
544.286	2.38
544.63	2.38
544.975	2.38
545.319	2.39
545.663	2.38
546.007	2.35
546.352	2.36
546.696	2.36
547.04	2.33
547.384	2.33
547.728	2.35
548.072	2.35
548.416	2.38
548.76	2.4
549.104	2.44
549.448	2.42
549.791	2.43
550.135	2.42
550.479	2.38
550.823	2.42
551.166	2.47
551.51	2.41
551.853	2.4
552.197	2.45
552.54	2.41
552.883	2.43
553.227	2.46
553.57	2.47
553.913	2.47
554.257	2.41
554.6	2.42
554.943	2.39
555.286	2.4
555.629	2.37
555.972	2.42
556.315	2.4
556.658	2.44
557.001	2.42
557.343	2.42
557.686	2.48
558.029	2.48
558.371	2.42
558.714	2.44
559.057	2.46
559.399	2.41
559.742	2.46
560.084	2.55
560.427	2.57
560.769	2.58
561.111	2.66
561.453	2.59
561.796	2.6
562.138	2.59
562.48	2.59
562.822	2.53
563.164	2.59
563.506	2.58
563.848	2.58
564.19	2.63
564.532	2.65
564.874	2.65
565.215	2.67
565.557	2.71
565.899	2.68
566.24	2.7
566.582	2.75
566.924	2.69
567.265	2.68
567.606	2.69
567.948	2.69
568.289	2.6
568.631	2.66
568.972	2.61
569.313	2.65
569.654	2.65
569.995	2.74
570.336	2.76
570.677	2.83
571.018	2.8
571.359	2.84
571.7	2.88
572.041	2.89
572.382	2.92
572.723	2.86
573.064	2.96
573.404	2.93
573.745	2.93
574.085	2.89
574.426	2.98
574.766	2.86
575.107	2.85
575.447	2.78
575.788	2.75
576.128	2.74
576.468	2.78
576.808	2.84
577.149	2.9
577.489	2.95
577.829	2.95
578.169	2.89
578.509	2.85
578.849	2.86
579.189	2.88
579.529	2.94
579.868	2.95
580.208	2.89
580.548	2.93
580.887	2.92
581.227	2.9
581.567	2.85
581.906	2.89
582.246	2.92
582.585	2.94
582.925	2.91
583.264	3.05
583.603	3.07
583.942	3.02
584.282	2.98
584.621	3.02
584.96	3
585.299	3.07
585.638	3.11
585.977	3.15
586.316	3.13
586.655	3.05
586.994	3.05
587.332	3.04
587.671	3.1
588.01	3.08
588.348	3.18
588.687	3.18
589.026	3.14
589.364	3.11
589.703	3.21
590.041	3.17
590.379	3.25
590.718	3.28
591.056	3.39
591.394	3.29
591.732	3.29
592.07	3.22
592.409	3.31
592.747	3.13
593.085	3.2
593.423	3.26
593.76	3.32
594.098	3.27
594.436	3.37
594.774	3.37
595.112	3.44
595.449	3.41
595.787	3.49
596.124	3.49
596.462	3.5
596.799	3.43
597.137	3.45
597.474	3.4
597.812	3.37
598.149	3.34
598.486	3.39
598.823	3.43
599.16	3.41
599.498	3.43
599.835	3.55
600.172	3.51
600.509	3.5
600.845	3.65
601.182	3.68
601.519	3.65
601.856	3.66
602.193	3.65
602.529	3.59
602.866	3.63
603.202	3.74
603.539	3.85
603.875	3.86
604.212	3.81
604.548	3.76
604.885	3.76
605.221	3.7
605.557	3.69
605.893	3.76
606.23	3.85
606.566	3.79
606.902	3.77
607.238	3.83
607.574	3.81
607.91	3.81
608.245	3.84
608.581	3.94
608.917	3.98
609.253	3.97
609.588	3.99
609.924	4.08
610.26	4.11
610.595	4.24
610.931	4.32
611.266	4.37
611.601	4.34
611.937	4.36
612.272	4.28
612.607	4.26
612.942	4.3
613.278	4.37
613.613	4.43
613.948	4.31
614.283	4.27
614.618	4.22
614.953	4.18
615.287	4.15
615.622	4.21
615.957	4.2
616.292	4.2
616.626	4.18
616.961	4.14
617.295	4.24
617.63	4.29
617.964	4.18
618.299	4.19
618.633	4.21
618.968	4.06
619.302	4.17
619.636	4.31
619.97	4.34
620.304	4.38
620.638	4.42
620.972	4.41
621.306	4.4
621.64	4.4
621.974	4.39
622.308	4.43
622.642	4.42
622.976	4.45
623.309	4.52
623.643	4.4
623.977	4.51
624.31	4.53
624.644	4.54
624.977	4.49
625.31	4.61
625.644	4.59
625.977	4.59
626.31	4.63
626.643	4.65
626.977	4.65
627.31	4.63
627.643	4.66
627.976	4.63
628.309	4.68
628.642	4.7
628.974	4.79
629.307	4.67
629.64	4.73
629.973	4.76
630.305	4.74
630.638	4.63
630.971	4.7
631.303	4.7
631.636	4.7
631.968	4.94
632.3	5.06
632.633	5.15
632.965	5.21
633.297	5.08
633.629	4.94
633.961	4.95
634.293	4.99
634.625	4.89
634.957	5.04
635.289	5.1
635.621	5.07
635.953	4.97
636.285	5.23
636.617	5.27
636.948	5.27
637.28	5.21
637.611	5.34
637.943	5.07
638.274	4.99
638.606	4.95
638.937	4.97
639.269	4.97
639.6	4.95
639.931	4.99
640.262	4.95
640.593	5.01
640.924	4.95
641.255	4.91
641.586	4.82
641.917	4.78
642.248	4.62
642.579	4.71
642.91	4.89
643.24	4.99
643.571	5.05
643.902	5.27
644.232	5.09
644.563	5.12
644.893	5.1
645.224	5
645.554	4.77
645.884	4.93
646.215	4.73
646.545	4.69
646.875	4.81
647.205	5.04
647.535	4.97
647.865	5.21
648.195	5.19
648.525	5.12
648.855	5.07
649.185	5.09
649.515	4.98
649.844	5.08
650.174	5.07
650.504	5.02
650.833	4.97
651.163	5.02
651.492	4.94
651.822	5.2
652.151	5.24
652.48	5.22
652.81	5.23
653.139	5.4
653.468	5.29
653.797	5.26
654.126	5.26
654.455	5.32
654.784	5.16
655.113	5.1
655.442	5.1
655.771	5.31
656.099	5.16
656.428	5.16
656.757	5.2
657.085	5.23
657.414	5.23
657.742	5.3
658.071	5.52
658.399	5.56
658.728	5.66
659.056	5.49
659.384	5.56
659.712	5.55
660.04	5.53
660.369	5.41
660.697	5.48
661.025	5.4
661.353	5.37
661.68	5.44
662.008	5.72
662.336	5.8
662.664	5.89
662.991	5.87
663.319	5.78
663.647	5.61
663.974	5.63
664.302	5.66
664.629	5.67
664.956	5.69
665.284	5.74
665.611	5.6
665.938	5.46
666.265	5.43
666.593	5.16
666.92	5.12
667.247	5.26
667.574	5.3
667.9	5.41
668.227	5.68
668.554	5.71
668.881	5.5
669.208	5.68
669.534	5.56
669.861	5.55
670.187	5.47
670.514	5.74
670.84	5.62
671.167	5.65
671.493	5.78
671.819	5.83
672.146	5.83
672.472	5.93
672.798	5.99
673.124	5.72
673.45	5.73
673.776	5.83
674.102	5.79
674.428	5.67
674.754	5.83
675.079	5.83
675.405	5.82
675.731	6.01
676.056	6.15
676.382	6.15
676.707	6.3
677.033	6.15
677.358	5.99
677.684	6.08
678.009	6.32
678.334	6.29
678.659	6.41
678.985	6.37
679.31	6.32
679.635	6.24
679.96	6.08
680.285	5.98
680.609	6.06
680.934	5.85
681.259	5.8
